# Phonon frequencies in cm-1
    1           0.000           0.000           0.000         186.533         186.533         186.533         197.490         197.490         197.490         325.211         325.211         325.211
    2           2.653           2.653           5.180         186.523         186.523         186.551         197.481         197.481         197.483         325.165         325.165         325.172
    3           5.305           5.305          10.358         186.493         186.493         186.607         197.457         197.457         197.463         325.027         325.027         325.053
    4           7.958           7.958          15.534         186.441         186.441         186.700         197.418         197.418         197.430         324.796         324.796         324.857
    5          10.610          10.610          20.704         186.366         186.366         186.829         197.366         197.366         197.383         324.475         324.475         324.581
    6          13.262          13.262          25.868         186.266         186.266         186.995         197.305         197.305         197.324         324.062         324.062         324.227
    7          15.913          15.913          31.024         186.136         186.136         187.195         197.240         197.240         197.252         323.558         323.558         323.795
    8          18.564          18.564          36.171         185.972         185.972         187.430         197.167         197.175         197.175         322.965         322.965         323.284
    9          21.214          21.214          41.307         185.770         185.770         187.698         197.071         197.117         197.117         322.283         322.283         322.695
   10          23.863          23.863          46.430         185.526         185.526         187.999         196.962         197.071         197.071         321.513         321.513         322.028
   11          26.511          26.511          51.539         185.232         185.232         188.330         196.842         197.045         197.045         320.656         320.656         321.284
   12          29.157          29.157          56.632         184.885         184.885         188.691         196.711         197.046         197.046         319.713         319.713         320.462
   13          31.802          31.802          61.709         184.480         184.480         189.080         196.570         197.081         197.081         318.686         318.686         319.562
   14          34.446          34.446          66.766         184.013         184.013         189.495         196.419         197.154         197.154         317.577         317.577         318.586
   15          37.088          37.088          71.804         183.480         183.480         189.935         196.259         197.273         197.273         316.386         316.386         317.534
   16          39.728          39.728          76.819         182.879         182.879         190.397         196.089         197.440         197.440         315.116         315.116         316.404
   17          42.366          42.366          81.812         182.209         182.209         190.880         195.912         197.660         197.660         313.768         313.768         315.200
   18          45.001          45.001          86.780         181.470         181.470         191.382         195.727         197.936         197.936         312.345         312.345         313.919
   19          47.633          47.633          91.722         180.662         180.662         191.901         195.536         198.269         198.269         310.849         310.849         312.564
   20          50.262          50.262          96.637         179.787         179.787         192.435         195.339         198.660         198.660         309.281         309.281         311.133
   21          52.888          52.888         101.522         178.845         178.845         192.981         195.137         199.112         199.112         307.645         307.645         309.629
   22          55.510          55.510         106.378         177.838         177.838         193.537         194.930         199.625         199.625         305.942         305.942         308.051
   23          58.128          58.128         111.202         176.768         176.768         194.102         194.719         200.199         200.199         304.175         304.175         306.400
   24          60.741          60.741         115.992         175.637         175.637         194.506         194.673         200.835         200.835         302.347         302.347         304.677
   25          63.349          63.349         120.748         174.447         174.447         194.291         195.247         201.534         201.534         300.460         300.460         302.881
   26          65.952          65.952         125.468         173.199         173.199         194.075         195.824         202.296         202.296         298.518         298.518         301.014
   27          68.550          68.550         130.150         171.896         171.896         193.858         196.399         203.122         203.122         296.522         296.522         299.077
   28          71.141          71.141         134.793         170.538         170.538         193.643         196.972         204.012         204.012         294.477         294.477         297.069
   29          73.725          73.725         139.396         169.129         169.129         193.428         197.541         204.967         204.967         292.386         292.386         294.993
   30          76.301          76.301         143.956         167.668         167.668         193.216         198.103         205.987         205.987         290.250         290.250         292.849
   31          78.870          78.870         148.472         166.158         166.158         193.007         198.657         207.071         207.071         288.075         288.075         290.637
   32          81.430          81.430         152.942         164.601         164.601         192.803         199.202         208.222         208.222         285.863         285.863         288.359
   33          83.981          83.981         157.364         162.997         162.997         192.603         199.735         209.437         209.437         283.617         283.617         286.015
   34          86.523          86.523         161.348         161.348         161.735         192.408         200.255         210.718         210.718         281.340         281.340         283.608
   35          89.054          89.054         159.655         159.655         166.052         192.220         200.763         212.063         212.063         279.038         279.038         281.139
   36          91.573          91.573         157.920         157.920         170.311         192.039         201.257         213.473         213.473         276.712         276.712         278.609
   37          94.081          94.081         156.143         156.143         174.507         191.866         201.740         214.947         214.947         274.367         274.367         276.020
   38          96.576          96.576         154.327         154.327         178.633         191.702         202.214         216.484         216.484         272.006         272.006         273.375
   39          99.058          99.058         152.472         152.472         182.678         191.547         202.684         218.084         218.084         269.632         269.632         270.677
   40         101.526         101.526         150.580         150.580         186.624         191.402         203.163         219.744         219.744         267.250         267.250         267.929
   41         103.979         103.979         148.651         148.651         190.441         191.268         203.677         221.464         221.464         264.863         264.863         265.137
   42         106.415         106.415         146.688         146.688         191.144         194.062         204.281         223.242         223.242         262.307         262.475         262.475
   43         108.835         108.835         144.691         144.691         191.032         197.343         205.111         225.076         225.076         259.448         260.090         260.090
   44         111.236         111.236         142.662         142.662         190.932         199.985         206.451         226.965         226.965         256.575         257.710         257.710
   45         113.618         113.618         140.602         140.602         190.845         201.692         208.573         228.906         228.906         253.707         255.341         255.341
   46         115.978         115.978         138.514         138.514         190.770         202.630         211.281         230.898         230.898         250.877         252.985         252.985
   47         118.314         118.314         136.400         136.400         190.709         203.159         214.158         232.937         232.937         248.139         250.645         250.645
   48         120.622         120.622         134.266         134.266         190.661         203.480         216.908         235.021         235.021         245.589         248.327         248.327
   49         122.887         122.887         132.124         132.124         190.626         203.677         219.278         237.147         237.147         243.394         246.033         246.033
   50         125.056         125.056         130.029         130.029         190.606         203.785         220.956         239.310         239.310         241.831         243.769         243.769
   51         126.490         126.490         128.619         128.619         190.599         203.820         221.578         241.249         241.327         241.327         241.719         241.719
   52         125.056         125.056         130.029         130.029         190.606         203.785         220.956         239.310         239.310         241.831         243.769         243.769
   53         122.887         122.887         132.124         132.124         190.626         203.677         219.278         237.147         237.147         243.394         246.033         246.033
   54         120.622         120.622         134.266         134.266         190.661         203.480         216.908         235.021         235.021         245.589         248.327         248.327
   55         118.314         118.314         136.400         136.400         190.709         203.159         214.158         232.937         232.937         248.139         250.645         250.645
   56         115.978         115.978         138.514         138.514         190.770         202.630         211.281         230.898         230.898         250.877         252.985         252.985
   57         113.618         113.618         140.602         140.602         190.845         201.692         208.573         228.906         228.906         253.707         255.341         255.341
   58         111.236         111.236         142.662         142.662         190.932         199.985         206.451         226.965         226.965         256.575         257.710         257.710
   59         108.835         108.835         144.691         144.691         191.032         197.343         205.111         225.076         225.076         259.448         260.090         260.090
   60         106.415         106.415         146.688         146.688         191.144         194.062         204.281         223.242         223.242         262.307         262.475         262.475
   61         103.979         103.979         148.651         148.651         190.441         191.268         203.677         221.464         221.464         264.863         264.863         265.137
   62         101.526         101.526         150.580         150.580         186.624         191.402         203.163         219.744         219.744         267.250         267.250         267.929
   63          99.058          99.058         152.472         152.472         182.678         191.547         202.684         218.084         218.084         269.632         269.632         270.677
   64          96.576          96.576         154.327         154.327         178.633         191.702         202.214         216.484         216.484         272.006         272.006         273.375
   65          94.081          94.081         156.143         156.143         174.507         191.866         201.740         214.947         214.947         274.367         274.367         276.020
   66          91.573          91.573         157.920         157.920         170.311         192.039         201.257         213.473         213.473         276.712         276.712         278.609
   67          89.054          89.054         159.655         159.655         166.052         192.220         200.763         212.063         212.063         279.038         279.038         281.139
   68          86.523          86.523         161.348         161.348         161.735         192.408         200.255         210.718         210.718         281.340         281.340         283.608
   69          83.981          83.981         157.364         162.997         162.997         192.603         199.735         209.437         209.437         283.617         283.617         286.015
   70          81.430          81.430         152.942         164.601         164.601         192.803         199.202         208.222         208.222         285.863         285.863         288.359
   71          78.870          78.870         148.472         166.158         166.158         193.007         198.657         207.071         207.071         288.075         288.075         290.637
   72          76.301          76.301         143.956         167.668         167.668         193.216         198.103         205.987         205.987         290.250         290.250         292.849
   73          73.725          73.725         139.396         169.129         169.129         193.428         197.541         204.967         204.967         292.386         292.386         294.993
   74          71.141          71.141         134.793         170.538         170.538         193.643         196.972         204.012         204.012         294.477         294.477         297.069
   75          68.550          68.550         130.150         171.896         171.896         193.858         196.399         203.122         203.122         296.522         296.522         299.077
   76          65.952          65.952         125.468         173.199         173.199         194.075         195.824         202.296         202.296         298.518         298.518         301.014
   77          63.349          63.349         120.748         174.447         174.447         194.291         195.247         201.534         201.534         300.460         300.460         302.881
   78          60.741          60.741         115.992         175.637         175.637         194.506         194.673         200.835         200.835         302.347         302.347         304.677
   79          58.128          58.128         111.202         176.768         176.768         194.102         194.719         200.199         200.199         304.175         304.175         306.400
   80          55.510          55.510         106.378         177.838         177.838         193.537         194.930         199.625         199.625         305.942         305.942         308.051
   81          52.888          52.888         101.522         178.845         178.845         192.981         195.137         199.112         199.112         307.645         307.645         309.629
   82          50.262          50.262          96.637         179.787         179.787         192.435         195.339         198.660         198.660         309.281         309.281         311.133
   83          47.633          47.633          91.722         180.662         180.662         191.901         195.536         198.269         198.269         310.849         310.849         312.564
   84          45.001          45.001          86.780         181.470         181.470         191.382         195.727         197.936         197.936         312.345         312.345         313.919
   85          42.366          42.366          81.812         182.209         182.209         190.880         195.912         197.660         197.660         313.768         313.768         315.200
   86          39.728          39.728          76.819         182.879         182.879         190.397         196.089         197.440         197.440         315.116         315.116         316.404
   87          37.088          37.088          71.804         183.480         183.480         189.935         196.259         197.273         197.273         316.386         316.386         317.534
   88          34.446          34.446          66.766         184.013         184.013         189.495         196.419         197.154         197.154         317.577         317.577         318.586
   89          31.802          31.802          61.709         184.480         184.480         189.080         196.570         197.081         197.081         318.686         318.686         319.562
   90          29.157          29.157          56.632         184.885         184.885         188.691         196.711         197.046         197.046         319.713         319.713         320.462
   91          26.511          26.511          51.539         185.232         185.232         188.330         196.842         197.045         197.045         320.656         320.656         321.284
   92          23.863          23.863          46.430         185.526         185.526         187.999         196.962         197.071         197.071         321.513         321.513         322.028
   93          21.214          21.214          41.307         185.770         185.770         187.698         197.071         197.117         197.117         322.283         322.283         322.695
   94          18.564          18.564          36.171         185.972         185.972         187.430         197.167         197.175         197.175         322.965         322.965         323.284
   95          15.913          15.913          31.024         186.136         186.136         187.195         197.240         197.240         197.252         323.558         323.558         323.795
   96          13.262          13.262          25.868         186.266         186.266         186.995         197.305         197.305         197.324         324.062         324.062         324.227
   97          10.610          10.610          20.704         186.366         186.366         186.829         197.366         197.366         197.383         324.475         324.475         324.581
   98           7.958           7.958          15.534         186.441         186.441         186.700         197.418         197.418         197.430         324.796         324.796         324.857
   99           5.305           5.305          10.358         186.493         186.493         186.607         197.457         197.457         197.463         325.027         325.027         325.053
  100           2.653           2.653           5.180         186.523         186.523         186.551         197.481         197.481         197.483         325.165         325.165         325.172
  101           0.000           0.000           0.000         186.533         186.533         186.533         197.490         197.490         197.490         325.211         325.211         325.211
  102           2.653           2.653           5.180         186.523         186.523         186.551         197.481         197.481         197.483         325.165         325.165         325.172
  103           5.305           5.305          10.358         186.493         186.493         186.607         197.457         197.457         197.463         325.027         325.027         325.053
  104           7.958           7.958          15.534         186.441         186.441         186.700         197.418         197.418         197.430         324.796         324.796         324.857
  105          10.610          10.610          20.704         186.366         186.366         186.829         197.366         197.366         197.383         324.475         324.475         324.581
  106          13.262          13.262          25.868         186.266         186.266         186.995         197.305         197.305         197.324         324.062         324.062         324.227
  107          15.913          15.913          31.024         186.136         186.136         187.195         197.240         197.240         197.252         323.558         323.558         323.795
  108          18.564          18.564          36.171         185.972         185.972         187.430         197.167         197.175         197.175         322.965         322.965         323.284
  109          21.214          21.214          41.307         185.770         185.770         187.698         197.071         197.117         197.117         322.283         322.283         322.695
  110          23.863          23.863          46.430         185.526         185.526         187.999         196.962         197.071         197.071         321.513         321.513         322.028
  111          26.511          26.511          51.539         185.232         185.232         188.330         196.842         197.045         197.045         320.656         320.656         321.284
  112          29.157          29.157          56.632         184.885         184.885         188.691         196.711         197.046         197.046         319.713         319.713         320.462
  113          31.802          31.802          61.709         184.480         184.480         189.080         196.570         197.081         197.081         318.686         318.686         319.562
  114          34.446          34.446          66.766         184.013         184.013         189.495         196.419         197.154         197.154         317.577         317.577         318.586
  115          37.088          37.088          71.804         183.480         183.480         189.935         196.259         197.273         197.273         316.386         316.386         317.534
  116          39.728          39.728          76.819         182.879         182.879         190.397         196.089         197.440         197.440         315.116         315.116         316.404
  117          42.366          42.366          81.812         182.209         182.209         190.880         195.912         197.660         197.660         313.768         313.768         315.200
  118          45.001          45.001          86.780         181.470         181.470         191.382         195.727         197.936         197.936         312.345         312.345         313.919
  119          47.633          47.633          91.722         180.662         180.662         191.901         195.536         198.269         198.269         310.849         310.849         312.564
  120          50.262          50.262          96.637         179.787         179.787         192.435         195.339         198.660         198.660         309.281         309.281         311.133
  121          52.888          52.888         101.522         178.845         178.845         192.981         195.137         199.112         199.112         307.645         307.645         309.629
  122          55.510          55.510         106.378         177.838         177.838         193.537         194.930         199.625         199.625         305.942         305.942         308.051
  123          58.128          58.128         111.202         176.768         176.768         194.102         194.719         200.199         200.199         304.175         304.175         306.400
  124          60.741          60.741         115.992         175.637         175.637         194.506         194.673         200.835         200.835         302.347         302.347         304.677
  125          63.349          63.349         120.748         174.447         174.447         194.291         195.247         201.534         201.534         300.460         300.460         302.881
  126          65.952          65.952         125.468         173.199         173.199         194.075         195.824         202.296         202.296         298.518         298.518         301.014
  127          68.550          68.550         130.150         171.896         171.896         193.858         196.399         203.122         203.122         296.522         296.522         299.077
  128          71.141          71.141         134.793         170.538         170.538         193.643         196.972         204.012         204.012         294.477         294.477         297.069
  129          73.725          73.725         139.396         169.129         169.129         193.428         197.541         204.967         204.967         292.386         292.386         294.993
  130          76.301          76.301         143.956         167.668         167.668         193.216         198.103         205.987         205.987         290.250         290.250         292.849
  131          78.870          78.870         148.472         166.158         166.158         193.007         198.657         207.071         207.071         288.075         288.075         290.637
  132          81.430          81.430         152.942         164.601         164.601         192.803         199.202         208.222         208.222         285.863         285.863         288.359
  133          83.981          83.981         157.364         162.997         162.997         192.603         199.735         209.437         209.437         283.617         283.617         286.015
  134          86.523          86.523         161.348         161.348         161.735         192.408         200.255         210.718         210.718         281.340         281.340         283.608
  135          89.054          89.054         159.655         159.655         166.052         192.220         200.763         212.063         212.063         279.038         279.038         281.139
  136          91.573          91.573         157.920         157.920         170.311         192.039         201.257         213.473         213.473         276.712         276.712         278.609
  137          94.081          94.081         156.143         156.143         174.507         191.866         201.740         214.947         214.947         274.367         274.367         276.020
  138          96.576          96.576         154.327         154.327         178.633         191.702         202.214         216.484         216.484         272.006         272.006         273.375
  139          99.058          99.058         152.472         152.472         182.678         191.547         202.684         218.084         218.084         269.632         269.632         270.677
  140         101.526         101.526         150.580         150.580         186.624         191.402         203.163         219.744         219.744         267.250         267.250         267.929
  141         103.979         103.979         148.651         148.651         190.441         191.268         203.677         221.464         221.464         264.863         264.863         265.137
  142         106.415         106.415         146.688         146.688         191.144         194.062         204.281         223.242         223.242         262.307         262.475         262.475
  143         108.835         108.835         144.691         144.691         191.032         197.343         205.111         225.076         225.076         259.448         260.090         260.090
  144         111.236         111.236         142.662         142.662         190.932         199.985         206.451         226.965         226.965         256.575         257.710         257.710
  145         113.618         113.618         140.602         140.602         190.845         201.692         208.573         228.906         228.906         253.707         255.341         255.341
  146         115.978         115.978         138.514         138.514         190.770         202.630         211.281         230.898         230.898         250.877         252.985         252.985
  147         118.314         118.314         136.400         136.400         190.709         203.159         214.158         232.937         232.937         248.139         250.645         250.645
  148         120.622         120.622         134.266         134.266         190.661         203.480         216.908         235.021         235.021         245.589         248.327         248.327
  149         122.887         122.887         132.124         132.124         190.626         203.677         219.278         237.147         237.147         243.394         246.033         246.033
  150         125.056         125.056         130.029         130.029         190.606         203.785         220.956         239.310         239.310         241.831         243.769         243.769
  151         126.490         126.490         128.619         128.619         190.599         203.820         221.578         241.249         241.327         241.327         241.719         241.719
  152         125.056         125.056         130.029         130.029         190.606         203.785         220.956         239.310         239.310         241.831         243.769         243.769
  153         122.887         122.887         132.124         132.124         190.626         203.677         219.278         237.147         237.147         243.394         246.033         246.033
  154         120.622         120.622         134.266         134.266         190.661         203.480         216.908         235.021         235.021         245.589         248.327         248.327
  155         118.314         118.314         136.400         136.400         190.709         203.159         214.158         232.937         232.937         248.139         250.645         250.645
  156         115.978         115.978         138.514         138.514         190.770         202.630         211.281         230.898         230.898         250.877         252.985         252.985
  157         113.618         113.618         140.602         140.602         190.845         201.692         208.573         228.906         228.906         253.707         255.341         255.341
  158         111.236         111.236         142.662         142.662         190.932         199.985         206.451         226.965         226.965         256.575         257.710         257.710
  159         108.835         108.835         144.691         144.691         191.032         197.343         205.111         225.076         225.076         259.448         260.090         260.090
  160         106.415         106.415         146.688         146.688         191.144         194.062         204.281         223.242         223.242         262.307         262.475         262.475
  161         103.979         103.979         148.651         148.651         190.441         191.268         203.677         221.464         221.464         264.863         264.863         265.137
  162         101.526         101.526         150.580         150.580         186.624         191.402         203.163         219.744         219.744         267.250         267.250         267.929
  163          99.058          99.058         152.472         152.472         182.678         191.547         202.684         218.084         218.084         269.632         269.632         270.677
  164          96.576          96.576         154.327         154.327         178.633         191.702         202.214         216.484         216.484         272.006         272.006         273.375
  165          94.081          94.081         156.143         156.143         174.507         191.866         201.740         214.947         214.947         274.367         274.367         276.020
  166          91.573          91.573         157.920         157.920         170.311         192.039         201.257         213.473         213.473         276.712         276.712         278.609
  167          89.054          89.054         159.655         159.655         166.052         192.220         200.763         212.063         212.063         279.038         279.038         281.139
  168          86.523          86.523         161.348         161.348         161.735         192.408         200.255         210.718         210.718         281.340         281.340         283.608
  169          83.981          83.981         157.364         162.997         162.997         192.603         199.735         209.437         209.437         283.617         283.617         286.015
  170          81.430          81.430         152.942         164.601         164.601         192.803         199.202         208.222         208.222         285.863         285.863         288.359
  171          78.870          78.870         148.472         166.158         166.158         193.007         198.657         207.071         207.071         288.075         288.075         290.637
  172          76.301          76.301         143.956         167.668         167.668         193.216         198.103         205.987         205.987         290.250         290.250         292.849
  173          73.725          73.725         139.396         169.129         169.129         193.428         197.541         204.967         204.967         292.386         292.386         294.993
  174          71.141          71.141         134.793         170.538         170.538         193.643         196.972         204.012         204.012         294.477         294.477         297.069
  175          68.550          68.550         130.150         171.896         171.896         193.858         196.399         203.122         203.122         296.522         296.522         299.077
  176          65.952          65.952         125.468         173.199         173.199         194.075         195.824         202.296         202.296         298.518         298.518         301.014
  177          63.349          63.349         120.748         174.447         174.447         194.291         195.247         201.534         201.534         300.460         300.460         302.881
  178          60.741          60.741         115.992         175.637         175.637         194.506         194.673         200.835         200.835         302.347         302.347         304.677
  179          58.128          58.128         111.202         176.768         176.768         194.102         194.719         200.199         200.199         304.175         304.175         306.400
  180          55.510          55.510         106.378         177.838         177.838         193.537         194.930         199.625         199.625         305.942         305.942         308.051
  181          52.888          52.888         101.522         178.845         178.845         192.981         195.137         199.112         199.112         307.645         307.645         309.629
  182          50.262          50.262          96.637         179.787         179.787         192.435         195.339         198.660         198.660         309.281         309.281         311.133
  183          47.633          47.633          91.722         180.662         180.662         191.901         195.536         198.269         198.269         310.849         310.849         312.564
  184          45.001          45.001          86.780         181.470         181.470         191.382         195.727         197.936         197.936         312.345         312.345         313.919
  185          42.366          42.366          81.812         182.209         182.209         190.880         195.912         197.660         197.660         313.768         313.768         315.200
  186          39.728          39.728          76.819         182.879         182.879         190.397         196.089         197.440         197.440         315.116         315.116         316.404
  187          37.088          37.088          71.804         183.480         183.480         189.935         196.259         197.273         197.273         316.386         316.386         317.534
  188          34.446          34.446          66.766         184.013         184.013         189.495         196.419         197.154         197.154         317.577         317.577         318.586
  189          31.802          31.802          61.709         184.480         184.480         189.080         196.570         197.081         197.081         318.686         318.686         319.562
  190          29.157          29.157          56.632         184.885         184.885         188.691         196.711         197.046         197.046         319.713         319.713         320.462
  191          26.511          26.511          51.539         185.232         185.232         188.330         196.842         197.045         197.045         320.656         320.656         321.284
  192          23.863          23.863          46.430         185.526         185.526         187.999         196.962         197.071         197.071         321.513         321.513         322.028
  193          21.214          21.214          41.307         185.770         185.770         187.698         197.071         197.117         197.117         322.283         322.283         322.695
  194          18.564          18.564          36.171         185.972         185.972         187.430         197.167         197.175         197.175         322.965         322.965         323.284
  195          15.913          15.913          31.024         186.136         186.136         187.195         197.240         197.240         197.252         323.558         323.558         323.795
  196          13.262          13.262          25.868         186.266         186.266         186.995         197.305         197.305         197.324         324.062         324.062         324.227
  197          10.610          10.610          20.704         186.366         186.366         186.829         197.366         197.366         197.383         324.475         324.475         324.581
  198           7.958           7.958          15.534         186.441         186.441         186.700         197.418         197.418         197.430         324.796         324.796         324.857
  199           5.305           5.305          10.358         186.493         186.493         186.607         197.457         197.457         197.463         325.027         325.027         325.053
  200           2.653           2.653           5.180         186.523         186.523         186.551         197.481         197.481         197.483         325.165         325.165         325.172
  201           0.000           0.000           0.000         186.533         186.533         186.533         197.490         197.490         197.490         325.211         325.211         325.211
  202           2.572           2.680           5.286         186.523         186.527         186.547         197.466         197.481         197.498         325.164         325.164         325.171
  203           5.142           5.360          10.570         186.493         186.511         186.589         197.395         197.456         197.524         325.022         325.023         325.051
  204           7.707           8.040          15.849         186.442         186.484         186.655         197.277         197.413         197.570         324.786         324.788         324.852
  205          10.264          10.720          21.122         186.373         186.444         186.740         197.112         197.353         197.641         324.457         324.460         324.575
  206          12.811          13.401          26.386         186.284         186.392         186.838         196.900         197.277         197.742         324.035         324.038         324.219
  207          15.346          16.082          31.639         186.177         186.325         186.939         196.642         197.184         197.882         323.522         323.525         323.785
  208          17.866          18.764          36.879         186.052         186.243         187.034         196.338         197.075         198.069         322.919         322.920         323.276
  209          20.368          21.447          42.104         185.911         186.144         187.110         195.990         196.951         198.313         322.224         322.229         322.691
  210          22.850          24.130          47.311         185.753         186.024         187.156         195.597         196.810         198.625         321.438         321.452         322.033
  211          25.311          26.814          52.499         185.581         185.883         187.160         195.160         196.655         199.012         320.564         320.592         321.303
  212          27.748          29.499          57.664         185.395         185.717         187.113         194.683         196.485         199.484         319.602         319.651         320.503
  213          30.159          32.184          62.805         185.197         185.523         187.007         194.165         196.301         200.044         318.555         318.632         319.636
  214          32.542          34.870          67.920         184.988         185.296         186.837         193.609         196.104         200.695         317.423         317.538         318.703
  215          34.896          37.556          73.005         184.770         185.033         186.600         193.017         195.893         201.437         316.209         316.372         317.706
  216          37.218          40.244          78.058         184.543         184.728         186.296         192.393         195.670         202.268         314.913         315.137         316.649
  217          39.507          42.931          83.077         184.311         184.377         185.924         191.740         195.436         203.183         313.539         313.839         315.533
  218          41.761          45.619          88.059         183.972         184.074         185.488         191.063         195.190         204.178         312.087         312.481         314.362
  219          43.979          48.307          93.001         183.508         183.833         184.987         190.365         194.934         205.247         310.559         311.066         313.140
  220          46.160          50.995          97.901         182.976         183.592         184.426         189.654         194.668         206.385         308.959         309.601         311.868
  221          48.303          53.683         102.754         182.371         183.351         183.805         188.932         194.394         207.585         307.288         308.089         310.550
  222          50.406          56.370         107.557         181.686         183.112         183.129         188.205         194.112         208.843         305.548         306.536         309.190
  223          52.468          59.057         112.306         180.916         182.398         182.877         187.476         193.822         210.153         303.741         304.947         307.791
  224          54.489          61.742         116.997         180.059         181.617         182.647         186.746         193.525         211.508         301.871         303.327         306.356
  225          56.468          64.427         121.623         179.114         180.789         182.424         186.014         193.223         212.906         299.939         301.682         304.890
  226          58.405          67.109         126.177         178.082         179.918         182.210         185.278         192.917         214.339         297.948         300.017         303.395
  227          60.298          69.790         130.649         176.966         179.013         182.005         184.534         192.605         215.804         295.900         298.339         301.876
  228          62.148          72.469         135.026         175.769         178.083         181.813         183.778         192.291         217.295         293.799         296.653         300.337
  229          63.953          75.145         139.289         174.497         177.145         181.633         183.006         191.974         218.808         291.646         294.966         298.781
  230          65.715          77.818         143.407         173.152         176.228         181.467         182.213         191.655         220.338         289.445         293.282         297.212
  231          67.431          80.487         147.331         171.739         175.375         181.316         181.395         191.336         221.880         287.197         291.609         295.633
  232          69.104          83.153         150.980         170.262         174.669         180.550         181.181         191.016         223.430         284.906         289.952         294.049
  233          70.731          85.815         154.209         168.725         174.249         179.675         181.063         190.697         224.983         282.575         288.317         292.463
  234          72.314          88.473         156.793         167.130         174.338         178.768         180.962         190.379         226.535         280.205         286.710         290.878
  235          73.852          91.125         158.468         165.482         175.200         177.829         180.880         190.063         228.080         277.799         285.137         289.299
  236          75.345          93.773         159.117         163.783         176.856         176.947         180.816         189.749         229.614         275.361         283.603         287.728
  237          76.781          96.390         158.900         162.052         175.859         179.400         180.771         189.442         231.117         272.916         282.127         286.183
  238          78.173          99.001         158.087         160.279         174.831         180.745         182.310         189.139         232.600         270.443         280.699         284.653
  239          79.521         101.607         156.886         158.465         173.771         180.737         185.467         188.840         234.058         267.946         279.326         283.141
  240          80.826         104.206         155.427         156.614         172.682         180.747         188.546         188.744         235.485         265.426         278.010         281.649
  241          82.089         106.799         153.786         154.730         171.565         180.776         188.257         192.064         236.876         262.886         276.757         280.180
  242          83.308         109.385         152.008         152.816         170.423         180.821         187.975         195.382         238.226         260.328         275.571         278.737
  243          84.485         111.964         150.123         150.877         169.257         180.884         187.699         198.672         239.529         257.755         274.456         277.321
  244          85.620         114.536         148.151         148.916         168.071         180.962         187.430         201.914         240.781         255.168         273.416         275.936
  245          86.713         117.101         146.107         146.938         166.868         181.055         187.169         205.096         241.975         252.569         272.454         274.584
  246          87.765         119.658         144.005         144.949         165.653         181.162         186.915         208.208         243.105         249.961         271.574         273.266
  247          88.775         122.208         141.854         142.952         164.427         181.283         186.669         211.244         244.166         247.346         270.779         271.984
  248          89.744         124.751         139.666         140.953         163.197         181.414         186.432         214.196         244.726         245.153         270.071         270.740
  249          90.673         127.286         137.449         138.958         161.966         181.556         186.203         217.062         242.101         246.062         269.454         269.537
  250          91.562         129.814         135.214         136.971         160.739         181.707         185.983         219.835         239.475         246.888         268.375         268.927
  251          92.411         132.334         132.971         135.000         159.521         181.865         185.773         222.511         236.848         247.631         267.256         268.490
  252          93.223         130.729         133.049         134.847         158.316         182.029         185.571         225.087         234.223         248.288         266.181         268.142
  253          93.997         128.498         131.125         137.353         157.130         182.198         185.380         227.557         231.600         248.864         265.152         267.878
  254          94.734         126.290         129.234         139.851         155.969         182.369         185.197         228.982         229.917         249.362         264.170         267.692
  255          95.436         124.115         127.382         142.342         154.837         182.540         185.025         226.370         232.161         249.791         263.236         267.575
  256          96.105         121.984         125.575         144.826         153.741         182.712         184.863         223.766         234.284         250.161         262.352         267.518
  257          96.742         119.908         123.819         147.303         152.684         182.880         184.710         221.170         236.278         250.486         261.518         267.510
  258          97.348         117.900         122.121         149.771         151.673         183.045         184.568         218.585         238.132         250.781         260.736         267.538
  259          97.927         115.970         120.485         150.712         152.232         183.204         184.436         216.012         239.837         251.065         260.006         267.592
  260          98.481         114.132         118.918         149.807         154.683         183.355         184.314         213.454         241.378         251.357         259.329         267.660
  261          99.012         112.396         117.424         148.961         157.124         183.498         184.202         210.914         242.740         251.677         258.706         267.734
  262          99.523         110.775         116.009         148.180         159.552         183.629         184.101         208.394         243.909         252.044         258.139         267.805
  263         100.017         109.281         114.677         147.467         161.965         183.747         184.010         205.901         244.876         252.468         257.627         267.868
  264         100.497         107.923         113.435         146.826         164.358         183.850         183.929         203.440         245.644         252.947         257.171         267.919
  265         100.963         106.714         112.286         146.260         166.721         183.859         183.934         201.022         246.231         253.462         256.772         267.956
  266         101.415         105.662         111.239         145.772         169.043         183.798         183.994         198.666         246.663         253.984         256.431         267.979
  267         101.849         104.776         110.303         145.364         171.300         183.749         184.025         196.402         246.972         254.477         256.147         267.989
  268         102.253         104.065         109.495         145.038         173.448         183.709         184.012         194.285         247.187         254.907         255.922         267.991
  269         102.607         103.534         108.839         144.796         175.402         183.680         183.938         192.418         247.329         255.249         255.755         267.987
  270         102.874         103.187         108.375         144.639         176.986         183.661         183.797         190.983         247.413         255.480         255.647         267.982
  271         103.009         103.029         108.149         144.567         177.864         183.652         183.664         190.243         247.450         255.588         255.598         267.979
  272         102.981         103.061         108.195         144.581         177.677         183.654         183.697         190.397         247.442         255.566         255.608         267.980
  273         102.797         103.282         108.506         144.682         176.516         183.666         183.850         191.398         247.391         255.416         255.677         267.984
  274         102.496         103.690         109.039         144.867         174.780         183.688         183.970         193.003         247.288         255.146         255.804         267.989
  275         102.123         104.282         109.749         145.137         172.748         183.721         184.022         194.969         247.124         254.773         255.991         267.991
  276         101.707         105.053         110.602         145.491         170.557         183.764         184.019         197.144         246.881         254.318         256.235         267.987
  277         101.266         105.994         111.576         145.926         168.275         183.817         183.977         199.443         246.534         253.811         256.538         267.973
  278         100.809         107.100         112.658         146.440         165.937         183.881         183.908         201.822         246.054         253.288         256.899         267.945
  279         100.339         108.360         113.839         147.031         163.563         183.817         183.955         204.256         245.409         252.782         257.317         267.904
  280          99.854         109.764         115.112         147.697         161.163         183.709         184.039         206.729         244.576         252.320         257.791         267.848
  281          99.355         111.302         116.472         148.433         158.744         183.586         184.134         209.232         243.541         251.916         258.322         267.782
  282          98.837         112.963         117.913         149.236         156.312         183.451         184.238         211.759         242.307         251.566         258.908         267.709
  283          98.299         114.734         119.432         150.102         153.867         183.306         184.354         214.305         240.883         251.257         259.549         267.636
  284          97.737         116.604         121.023         151.026         151.413         183.152         184.479         216.868         239.286         250.970         260.243         267.572
  285          97.149         118.561         122.680         148.949         152.005         182.991         184.614         219.445         237.530         250.685         260.991         267.525
  286          96.533         120.593         124.398         146.478         153.031         182.824         184.760         222.034         235.628         250.382         261.790         267.508
  287          95.886         122.688         126.172         143.999         154.102         182.655         184.916         224.633         233.591         250.043         262.641         267.531
  288          95.206         124.836         127.994         141.513         155.211         182.483         185.081         227.240         231.426         249.655         263.542         267.607
  289          94.492         127.023         129.860         139.019         156.353         182.311         185.257         229.143         229.854         249.204         264.492         267.745
  290          93.743         129.240         131.763         136.518         157.523         182.141         185.442         226.745         232.474         248.681         265.490         267.957
  291          92.957         131.475         133.697         134.010         158.716         181.974         185.637         224.240         235.098         248.078         266.534         268.249
  292          92.132         131.495         133.719         135.655         159.925         181.812         185.842         221.630         237.724         247.393         267.624         268.626
  293          91.270         128.972         135.961         137.632         161.147         181.656         186.056         218.921         240.350         246.622         268.757         269.093
  294          90.367         126.442         138.190         139.622         162.376         181.508         186.278         216.117         242.976         245.768         269.650         269.933
  295          89.425         123.904         140.399         141.619         163.608         181.369         186.510         213.222         244.833         245.600         270.297         271.150
  296          88.442         121.359         142.576         143.618         164.837         181.241         186.750         210.241         243.820         248.219         271.034         272.407
  297          87.419         118.806         144.711         145.613         166.059         181.125         186.999         207.179         242.736         250.832         271.858         273.701
  298          86.354         116.246         146.796         147.599         167.271         181.022         187.255         204.042         241.583         253.436         272.765         275.031
  299          85.247         113.679         148.817         149.572         168.468         180.934         187.519         200.839         240.370         256.031         273.754         276.394
  300          84.098         111.105         150.762         151.526         169.648         180.861         187.791         197.580         239.100         258.614         274.820         277.790
  301          82.907         108.524         152.614         153.457         170.806         180.804         188.069         194.278         237.781         261.183         275.959         279.215
  302          81.673         105.935         154.350         155.361         171.941         180.764         188.353         190.955         236.416         263.735         277.168         280.667
  303          80.396         103.340         155.937         157.235         173.048         180.742         187.644         188.643         235.013         266.268         278.442         282.144
  304          79.076         100.739         157.320         159.074         174.128         180.737         184.397         188.939         233.575         268.781         279.777         283.643
  305          77.713          98.132         158.409         160.875         175.177         180.751         181.304         189.239         232.109         271.270         281.169         285.162
  306          76.307          95.518         159.051         162.634         176.195         178.519         180.784         189.544         230.618         273.734         282.613         286.697
  307          74.857          92.899         159.011         164.349         176.277         177.181         180.835         189.852         229.109         276.170         284.104         288.245
  308          73.363          90.275         158.042         166.016         174.827         178.133         180.904         190.164         227.585         278.575         285.637         289.805
  309          71.826          87.646         156.074         167.633         174.239         179.054         180.992         190.477         226.052         280.946         287.207         291.371
  310          70.244          85.012         153.290         169.195         174.334         179.942         181.096         190.793         224.514         283.283         288.808         292.942
  311          68.619          82.374         149.948         170.701         174.854         180.800         181.218         191.109         222.976         285.581         290.434         294.513
  312          66.950          79.732         146.244         172.146         175.606         181.357         181.629         191.426         221.443         287.838         292.081         296.081
  313          65.237          77.087         142.297         173.527         176.475         181.511         182.432         191.743         219.918         290.052         293.742         297.642
  314          63.481          74.438         138.175         174.840         177.393         181.679         183.212         192.058         218.406         292.220         295.411         299.193
  315          61.681          71.787         133.921         176.081         178.321         181.861         183.972         192.371         216.913         294.339         297.083         300.731
  316          59.838          69.133         129.560         177.247         179.237         182.055         184.718         192.682         215.442         296.408         298.752         302.251
  317          57.952          66.477         125.110         178.333         180.127         182.259         185.452         192.989         213.998         298.423         300.412         303.750
  318          56.024          63.819         120.581         179.335         180.980         182.474         186.180         193.292         212.586         300.381         302.056         305.224
  319          54.054          61.160         115.984         180.252         181.791         182.696         186.904         193.590         211.211         302.282         303.681         306.670
  320          52.043          58.499         111.325         181.083         182.554         182.925         187.628         193.882         209.877         304.121         305.280         308.084
  321          49.992          55.838         106.610         181.828         183.159         183.267         188.350         194.168         208.590         305.898         306.847         309.462
  322          47.901          53.176         101.842         182.491         183.396         183.927         189.069         194.446         207.354         307.608         308.378         310.802
  323          45.772          50.513          97.026         183.077         183.635         184.531         189.782         194.717         206.176         309.251         309.867         312.099
  324          43.605          47.851          92.165         183.591         183.874         185.076         190.485         194.978         205.060         310.824         311.310         313.351
  325          41.402          45.188          87.263         184.041         184.112         185.562         191.173         195.230         204.013         312.325         312.702         314.554
  326          39.163          42.526          82.322         184.346         184.433         185.985         191.840         195.472         203.039         313.751         314.039         315.705
  327          36.891          39.863          77.345         184.576         184.774         186.343         192.483         195.702         202.145         315.102         315.316         316.802
  328          34.587          37.202          72.335         184.799         185.070         186.636         193.097         195.922         201.334         316.374         316.530         317.841
  329          32.252          34.540          67.294         185.014         185.326         186.862         193.679         196.129         200.610         317.567         317.676         318.820
  330          29.888          31.880          62.225         185.220         185.546         187.022         194.225         196.323         199.976         318.678         318.751         319.737
  331          27.497          29.220          57.129         185.415         185.736         187.121         194.734         196.503         199.431         319.706         319.753         320.590
  332          25.080          26.561          52.010         185.598         185.898         187.162         195.203         196.670         198.972         320.650         320.677         321.375
  333          22.640          23.902          46.870         185.767         186.035         187.153         195.632         196.823         198.596         321.508         321.522         322.092
  334          20.180          21.244          41.710         185.922         186.152         187.105         196.017         196.961         198.293         322.279         322.284         322.738
  335          17.700          18.587          36.534         186.061         186.249         187.028         196.360         197.083         198.055         322.962         322.962         323.311
  336          15.203          15.931          31.342         186.184         186.329         186.934         196.658         197.190         197.873         323.554         323.556         323.812
  337          12.692          13.275          26.138         186.289         186.395         186.833         196.911         197.281         197.737         324.057         324.060         324.237
  338          10.168          10.619          20.923         186.376         186.446         186.737         197.119         197.356         197.638         324.471         324.474         324.587
  339           7.635           7.964          15.699         186.444         186.485         186.653         197.281         197.414         197.569         324.794         324.796         324.859
  340           5.094           5.309          10.470         186.493         186.512         186.588         197.397         197.456         197.523         325.025         325.026         325.054
  341           2.548           2.654           5.236         186.523         186.528         186.547         197.467         197.481         197.498         325.165         325.165         325.172
  342           0.000           0.000           0.000         186.533         186.533         186.533         197.490         197.490         197.490         325.211         325.211         325.211
  343           2.600           2.600           5.287         186.526         186.526         186.545         197.461         197.493         197.493         325.162         325.169         325.169
  344           5.199           5.199          10.573         186.505         186.505         186.583         197.373         197.501         197.501         325.014         325.043         325.043
  345           7.792           7.792          15.855         186.467         186.467         186.646         197.228         197.517         197.517         324.767         324.834         324.834
  346          10.378          10.378          21.133         186.411         186.411         186.735         197.025         197.541         197.541         324.423         324.541         324.541
  347          12.956          12.956          26.405         186.333         186.333         186.848         196.764         197.577         197.577         323.983         324.166         324.166
  348          15.521          15.521          31.669         186.229         186.229         186.986         196.446         197.628         197.628         323.446         323.711         323.711
  349          18.073          18.073          36.923         186.093         186.093         187.148         196.071         197.697         197.697         322.815         323.175         323.175
  350          20.608          20.608          42.168         185.922         185.922         187.335         195.640         197.788         197.788         322.092         322.561         322.561
  351          23.126          23.126          47.399         185.711         185.711         187.545         195.153         197.902         197.902         321.278         321.871         321.871
  352          25.623          25.623          52.617         185.455         185.455         187.779         194.612         198.043         198.043         320.375         321.106         321.106
  353          28.098          28.098          57.820         185.150         185.150         188.035         194.015         198.212         198.212         319.386         320.269         320.269
  354          30.549          30.549          63.006         184.793         184.793         188.313         193.365         198.410         198.410         318.313         319.363         319.363
  355          32.973          32.973          68.173         184.383         184.383         188.611         192.663         198.635         198.635         317.161         318.389         318.389
  356          35.370          35.370          73.321         183.918         183.918         188.929         191.908         198.886         198.886         315.931         317.353         317.353
  357          37.737          37.737          78.447         183.397         183.397         189.265         191.103         199.161         199.161         314.629         316.256         316.256
  358          40.073          40.073          83.550         182.820         182.820         189.617         190.249         199.454         199.454         313.257         315.103         315.103
  359          42.375          42.375          88.628         182.189         182.189         189.345         189.983         199.763         199.763         311.821         313.898         313.898
  360          44.644          44.644          93.681         181.504         181.504         188.395         190.361         200.082         200.082         310.325         312.645         312.645
  361          46.876          46.876          98.706         180.766         180.766         187.398         190.748         200.405         200.405         308.775         311.349         311.349
  362          49.072          49.072         103.702         179.976         179.976         186.356         191.141         200.725         200.725         307.176         310.015         310.015
  363          51.229          51.229         108.667         179.137         179.137         185.271         191.536         201.037         201.037         305.535         308.649         308.649
  364          53.347          53.347         113.600         178.250         178.250         184.145         191.929         201.333         201.333         303.859         307.257         307.257
  365          55.424          55.424         118.499         177.316         177.316         182.978         192.315         201.607         201.607         302.156         305.844         305.844
  366          57.460          57.460         123.362         176.338         176.338         181.772         192.688         201.850         201.850         300.432         304.418         304.418
  367          59.454          59.454         128.187         175.315         175.315         180.528         193.044         202.056         202.056         298.698         302.985         302.985
  368          61.405          61.405         132.973         174.251         174.251         179.249         193.375         202.216         202.216         296.962         301.553         301.553
  369          63.312          63.312         137.718         173.147         173.147         177.937         193.673         202.322         202.322         295.235         300.129         300.129
  370          65.175          65.175         142.419         172.003         172.003         176.592         193.932         202.366         202.366         293.527         298.721         298.721
  371          66.994          66.994         147.074         170.822         170.822         175.217         194.142         202.341         202.341         291.850         297.337         297.337
  372          68.767          68.767         151.680         169.605         169.605         173.813         194.296         202.238         202.238         290.215         295.985         295.985
  373          70.494          70.494         156.233         168.353         168.353         172.383         194.384         202.049         202.049         288.637         294.672         294.672
  374          72.176          72.176         160.730         167.068         167.068         170.928         194.398         201.767         201.767         287.126         293.408         293.408
  375          73.812          73.812         165.162         165.751         165.751         169.450         194.333         201.384         201.384         285.698         292.198         292.198
  376          75.402          75.402         164.404         164.404         167.951         169.520         194.186         200.896         200.896         284.364         291.050         291.050
  377          76.945          76.945         163.027         163.027         166.434         173.784         193.962         200.294         200.294         283.138         289.971         289.971
  378          78.442          78.442         161.623         161.623         164.900         177.917         193.689         199.576         199.576         282.032         288.966         288.966
  379          79.893          79.893         160.192         160.192         163.351         181.820         193.452         198.738         198.738         281.057         288.040         288.040
  380          81.297          81.297         158.737         158.737         161.789         185.212         193.522         197.776         197.776         280.222         287.196         287.196
  381          82.656          82.656         157.258         157.258         160.217         187.364         194.622         196.690         196.690         279.536         286.437         286.437
  382          83.969          83.969         155.758         155.758         158.637         187.792         195.479         195.479         197.226         279.004         285.764         285.764
  383          85.235          85.235         154.237         154.237         157.050         187.189         194.146         194.146         200.641         278.629         285.178         285.178
  384          86.457          86.457         152.698         152.698         155.458         186.105         192.692         192.692         204.312         278.414         284.677         284.677
  385          87.633          87.633         151.141         151.141         153.865         184.735         191.121         191.121         208.045         278.356         284.259         284.259
  386          88.763          88.763         149.570         149.570         152.271         183.151         189.439         189.439         211.771         278.454         283.922         283.922
  387          89.849          89.849         147.985         147.985         150.680         181.386         187.650         187.650         215.458         278.701         283.663         283.663
  388          90.891          90.891         146.389         146.389         149.093         179.462         185.761         185.761         219.091         279.092         283.476         283.476
  389          91.888          91.888         144.783         144.783         147.512         177.396         183.779         183.779         222.661         279.619         283.358         283.358
  390          92.841          92.841         143.169         143.169         145.940         175.200         181.712         181.712         226.161         280.274         283.303         283.303
  391          93.749          93.749         141.551         141.551         144.378         172.887         179.566         179.566         229.587         281.047         283.307         283.307
  392          94.614          94.614         139.930         139.930         142.829         170.470         177.351         177.351         232.933         281.929         283.363         283.363
  393          95.435          95.435         138.308         138.308         141.295         167.960         175.073         175.073         236.197         282.912         283.468         283.468
  394          96.212          96.212         136.689         136.689         139.777         165.368         172.742         172.742         239.376         283.614         283.614         283.984
  395          96.944          96.944         135.075         135.075         138.278         162.706         170.365         170.365         242.467         283.799         283.799         285.138
  396          97.632          97.632         133.471         133.471         136.800         159.983         167.950         167.950         245.468         284.017         284.017         286.364
  397          98.274          98.274         131.878         131.878         135.345         157.209         165.504         165.504         248.377         284.263         284.263         287.653
  398          98.870          98.870         130.302         130.302         133.914         154.395         163.037         163.037         251.192         284.533         284.533         288.996
  399          99.419          99.419         128.747         128.747         132.510         151.549         160.554         160.554         253.911         284.823         284.823         290.386
  400          99.918          99.918         127.217         127.217         131.135         148.680         158.065         158.065         256.534         285.130         285.130         291.813
  401         100.366         100.366         125.718         125.718         129.789         145.798         155.576         155.576         259.059         285.450         285.450         293.270
  402         100.760         100.760         124.258         124.258         128.476         142.910         153.094         153.094         261.485         285.779         285.779         294.750
  403         101.095         101.095         122.842         122.842         127.197         140.025         150.627         150.627         263.813         286.116         286.116         296.244
  404         101.367         101.367         121.479         121.479         125.953         137.151         148.182         148.182         266.042         286.456         286.456         297.744
  405         101.571         101.571         120.179         120.179         124.747         134.296         145.767         145.767         268.172         286.798         286.798         299.244
  406         101.701         101.701         118.952         118.952         123.579         131.468         143.387         143.387         270.204         287.139         287.139         300.736
  407         101.748         101.748         117.809         117.809         122.452         128.675         141.051         141.051         272.138         287.477         287.477         302.213
  408         101.705         101.705         116.761         116.761         121.366         125.926         138.766         138.766         273.976         287.811         287.811         303.668
  409         101.568         101.568         115.817         115.817         120.324         123.228         136.538         136.538         275.718         288.137         288.137         305.095
  410         101.332         101.332         114.986         114.986         119.327         120.589         134.375         134.375         277.364         288.456         288.456         306.486
  411         100.999         100.999         114.270         114.270         118.019         118.376         132.284         132.284         278.916         288.764         288.764         307.836
  412         100.574         100.574         113.666         113.666         115.525         117.472         130.273         130.273         280.375         289.062         289.062         309.140
  413         100.069         100.069         113.118         113.168         113.168         116.617         128.348         128.348         281.742         289.346         289.346         310.391
  414          99.500          99.500         110.804         112.762         112.762         115.812         126.519         126.519         283.018         289.618         289.618         311.584
  415          98.885          98.885         108.595         112.434         112.434         115.057         124.792         124.792         284.202         289.875         289.875         312.715
  416          98.244          98.244         106.499         112.166         112.166         114.354         123.175         123.175         285.297         290.116         290.116         313.780
  417          97.595          97.595         104.525         111.944         111.944         113.704         121.678         121.678         286.302         290.341         290.341         314.773
  418          96.954          96.954         102.682         111.752         111.752         113.107         120.308         120.308         287.219         290.548         290.548         315.692
  419          96.335          96.335         100.981         111.577         111.577         112.565         119.074         119.074         288.047         290.738         290.738         316.534
  420          95.752          95.752          99.430         111.406         111.406         112.077         117.986         117.986         288.787         290.910         290.910         317.294
  421          95.215          95.215          98.037         111.232         111.232         111.646         117.049         117.049         289.440         291.062         291.062         317.971
  422          94.733          94.733          96.811         111.049         111.049         111.271         116.269         116.269         290.005         291.195         291.195         318.563
  423          94.313          94.313          95.759         110.858         110.858         110.953         115.644         115.644         290.483         291.309         291.309         319.067
  424          93.962          93.962          94.889         110.667         110.667         110.692         115.166         115.166         290.874         291.402         291.402         319.481
  425          93.683          93.683          94.206         110.489         110.492         110.492         114.819         114.819         291.178         291.474         291.474         319.805
  426          93.482          93.482          93.715         110.343         110.351         110.351         114.588         114.588         291.395         291.527         291.527         320.037
  427          93.360          93.360          93.418         110.256         110.259         110.259         114.457         114.457         291.525         291.558         291.558         320.176
  428          93.319          93.319          93.319         110.227         110.227         110.227         114.414         114.414         291.568         291.568         291.568         320.223
