============= Direct results (without any inter/extrapolation) ==================
 For present temperature (in Kelvin): T=     50.000
   The cold contribution (in eV/atom): U_0 =   -1416.778
   The specific heat (in k_b/atom): C_v=     1.649
   The vibrational entropy (in k_b/atom): S_vib =     0.860
   The internal energy (in eV/atom): U_vib =     0.021
   The vibrational contribution (in eV/atom): F_vib = U_vib -T.S_vib =     0.017
   The harmonic free energy (in eV/atom) -->  F_tot^HA = U_0 + F_vib =   -1416.761
   Useful quantities for melting :
      The mean square displacement (in a.u.): sqrt(<u^2>) =     0.105
      The <Omega^(-2)> factor (in THz^(-2)) =     0.490
      The Wigner-Seitz radius (in a.u.) : d_at =     6.420
      The average mass / proton-electron mass ratio (in a.u.) =   238.029
      The Lindemann constant : sqrt(<u^2>)/d_at =     0.016
      The integral of vDOS =     1.000
 
============= Harmonic Approximation (HA) ==================
   Note that the following results come from an EXTRAPOLATION:
     1/ F_vib^HA(T) is computed for each T using vDOS(T=   50)
     2/ F_tot^HA(T) = F_vib^HA(T) + U_0
   T         F_vib^HA(T)   F_tot^HA(T)           C_v(T)         S_vib(T)        U_vib(T)        MSD(T)
   100           0.010       -1416.768           2.547           2.354           0.030           0.131
   200          -0.019       -1416.798           2.876           4.256           0.054           0.178
   300          -0.062       -1416.840           2.944           5.438           0.079           0.217
   400          -0.112       -1416.890           2.968           6.289           0.105           0.250
   500          -0.169       -1416.948           2.980           6.953           0.130           0.279
   600          -0.232       -1417.010           2.986           7.496           0.156           0.305
   700          -0.298       -1417.077           2.990           7.957           0.182           0.329
   800          -0.369       -1417.147           2.992           8.356           0.207           0.352
   900          -0.442       -1417.220           2.994           8.709           0.233           0.373
  1000          -0.519       -1417.297           2.995           9.024           0.259           0.394
  1100          -0.598       -1417.376           2.996           9.310           0.285           0.413
  1200          -0.679       -1417.457           2.996           9.571           0.311           0.431
  1300          -0.763       -1417.541           2.997           9.810           0.336           0.449
  1400          -0.848       -1417.626           2.997          10.033           0.362           0.466
  1500          -0.935       -1417.714           2.998          10.239           0.388           0.482
  1600          -1.025       -1417.803           2.998          10.433           0.414           0.498
  1700          -1.115       -1417.893           2.998          10.615           0.440           0.513
  1800          -1.207       -1417.986           2.998          10.786           0.466           0.528
  1900          -1.301       -1418.079           2.999          10.948           0.491           0.542
  2000          -1.396       -1418.174           2.999          11.102           0.517           0.556
  2100          -1.492       -1418.271           2.999          11.248           0.543           0.570
  2200          -1.590       -1418.368           2.999          11.388           0.569           0.583
  2300          -1.689       -1418.467           2.999          11.521           0.595           0.597
  2400          -1.789       -1418.567           2.999          11.649           0.621           0.609
  2500          -1.889       -1418.668           2.999          11.771           0.646           0.622
  2600          -1.991       -1418.770           2.999          11.889           0.672           0.634
  2700          -2.094       -1418.872           2.999          12.002           0.698           0.646
  2800          -2.198       -1418.976           2.999          12.111           0.724           0.658
  2900          -2.303       -1419.081           2.999          12.216           0.750           0.670
  3000          -2.409       -1419.187           2.999          12.318           0.776           0.681
  3100          -2.515       -1419.293           2.999          12.416           0.802           0.693
  3200          -2.623       -1419.401           3.000          12.512           0.827           0.704
  3300          -2.731       -1419.509           3.000          12.604           0.853           0.715
  3400          -2.840       -1419.618           3.000          12.693           0.879           0.725
  3500          -2.950       -1419.728           3.000          12.780           0.905           0.736
  3600          -3.060       -1419.838           3.000          12.865           0.931           0.746
  3700          -3.171       -1419.950           3.000          12.947           0.957           0.757
  3800          -3.283       -1420.061           3.000          13.027           0.982           0.767
  3900          -3.396       -1420.174           3.000          13.105           1.008           0.777
  4000          -3.509       -1420.287           3.000          13.181           1.034           0.787
  4100          -3.623       -1420.401           3.000          13.255           1.060           0.796
  4200          -3.738       -1420.516           3.000          13.327           1.086           0.806
  4300          -3.853       -1420.631           3.000          13.398           1.112           0.816
  4400          -3.969       -1420.747           3.000          13.467           1.138           0.825
  4500          -4.085       -1420.863           3.000          13.534           1.163           0.834
  4600          -4.202       -1420.980           3.000          13.600           1.189           0.844
  4700          -4.319       -1421.097           3.000          13.665           1.215           0.853
  4800          -4.437       -1421.215           3.000          13.728           1.241           0.862
  4900          -4.556       -1421.334           3.000          13.790           1.267           0.871
  5000          -4.675       -1421.453           3.000          13.850           1.293           0.880
  5100          -4.795       -1421.573           3.000          13.910           1.319           0.888
  5200          -4.915       -1421.693           3.000          13.968           1.344           0.897
  5300          -5.035       -1421.813           3.000          14.025           1.370           0.906
  5400          -5.156       -1421.935           3.000          14.081           1.396           0.914
  5500          -5.278       -1422.056           3.000          14.136           1.422           0.922
  5600          -5.400       -1422.178           3.000          14.190           1.448           0.931
  5700          -5.523       -1422.301           3.000          14.243           1.474           0.939
  5800          -5.645       -1422.424           3.000          14.296           1.499           0.947
  5900          -5.769       -1422.547           3.000          14.347           1.525           0.955
  6000          -5.893       -1422.671           3.000          14.397           1.551           0.963
  6100          -6.017       -1422.795           3.000          14.447           1.577           0.971
  6200          -6.142       -1422.920           3.000          14.496           1.603           0.979
  6300          -6.267       -1423.045           3.000          14.544           1.629           0.987
  6400          -6.392       -1423.171           3.000          14.591           1.655           0.995
  6500          -6.518       -1423.296           3.000          14.637           1.680           1.003
  6600          -6.645       -1423.423           3.000          14.683           1.706           1.010
  6700          -6.771       -1423.550           3.000          14.728           1.732           1.018
  6800          -6.898       -1423.677           3.000          14.773           1.758           1.026
  6900          -7.026       -1423.804           3.000          14.816           1.784           1.033
  7000          -7.154       -1423.932           3.000          14.860           1.810           1.041
  7100          -7.282       -1424.060           3.000          14.902           1.836           1.048
  7200          -7.411       -1424.189           3.000          14.944           1.861           1.055
  7300          -7.540       -1424.318           3.000          14.986           1.887           1.063
  7400          -7.669       -1424.447           3.000          15.026           1.913           1.070
  7500          -7.799       -1424.577           3.000          15.067           1.939           1.077
  7600          -7.929       -1424.707           3.000          15.106           1.965           1.084
  7700          -8.059       -1424.837           3.000          15.146           1.991           1.091
  7800          -8.190       -1424.968           3.000          15.184           2.017           1.099
  7900          -8.321       -1425.099           3.000          15.222           2.042           1.106
  8000          -8.452       -1425.230           3.000          15.260           2.068           1.113
  8100          -8.584       -1425.362           3.000          15.297           2.094           1.119
  8200          -8.716       -1425.494           3.000          15.334           2.120           1.126
  8300          -8.848       -1425.626           3.000          15.371           2.146           1.133
  8400          -8.981       -1425.759           3.000          15.407           2.172           1.140
  8500          -9.113       -1425.892           3.000          15.442           2.197           1.147
  8600          -9.247       -1426.025           3.000          15.477           2.223           1.153
  8700          -9.380       -1426.158           3.000          15.512           2.249           1.160
  8800          -9.514       -1426.292           3.000          15.546           2.275           1.167
  8900          -9.648       -1426.426           3.000          15.580           2.301           1.173
  9000          -9.783       -1426.561           3.000          15.614           2.327           1.180
  9100          -9.917       -1426.695           3.000          15.647           2.353           1.187
  9200         -10.052       -1426.830           3.000          15.679           2.378           1.193
  9300         -10.187       -1426.966           3.000          15.712           2.404           1.200
  9400         -10.323       -1427.101           3.000          15.744           2.430           1.206
  9500         -10.459       -1427.237           3.000          15.776           2.456           1.212
  9600         -10.595       -1427.373           3.000          15.807           2.482           1.219
  9700         -10.731       -1427.509           3.000          15.838           2.508           1.225
  9800         -10.868       -1427.646           3.000          15.869           2.534           1.231
  9900         -11.005       -1427.783           3.000          15.899           2.559           1.238
 10000         -11.142       -1427.920           3.000          15.930           2.585           1.244
