#   T(K)    C_v(k_B/fu)        Gamma     alpha_v*10^6(K^-1)   E_th(eV)                       P_th(GPa)
#                                                                         ----------------------------------------------
#                                                                          {sum G_i.U_iV}  {int G.C_v/V dT}    {G.U/V}
# ----------------------------------------------------------------------------------------------------------------------
    10           0.000           0.586           0.000           0.268           4.100           0.000           2.448
    20           0.000           0.593           0.000           0.268           4.100           0.000           2.477
    30           0.000           0.639           0.000           0.268           4.100           0.000           2.668
    40           0.004           0.719           0.004           0.268           4.100           0.000           3.001
    50           0.013           0.798           0.015           0.268           4.100           0.000           3.332
    60           0.031           0.860           0.037           0.268           4.101           0.001           3.590
    70           0.059           0.903           0.074           0.268           4.101           0.001           3.769
    80           0.097           0.930           0.126           0.268           4.102           0.002           3.883
    90           0.146           0.945           0.193           0.269           4.104           0.004           3.947
   100           0.207           0.952           0.276           0.269           4.106           0.007           3.979
   110           0.280           0.954           0.373           0.269           4.109           0.011           3.991
   120           0.363           0.953           0.485           0.269           4.113           0.015           3.991
   130           0.457           0.951           0.608           0.270           4.118           0.021           3.987
   140           0.560           0.948           0.744           0.270           4.125           0.028           3.981
   150           0.672           0.945           0.889           0.270           4.132           0.037           3.976
   160           0.790           0.942           1.042           0.271           4.142           0.047           3.974
   170           0.914           0.940           1.203           0.272           4.152           0.058           3.975
   180           1.042           0.938           1.369           0.273           4.165           0.071           3.979
   190           1.174           0.936           1.539           0.274           4.179           0.086           3.987
   200           1.307           0.935           1.712           0.275           4.194           0.102           3.999
   210           1.441           0.935           1.886           0.276           4.212           0.120           4.013
   220           1.575           0.934           2.061           0.277           4.230           0.140           4.030
   230           1.709           0.934           2.236           0.279           4.251           0.162           4.050
   240           1.841           0.934           2.409           0.280           4.273           0.185           4.073
   250           1.972           0.935           2.581           0.282           4.297           0.209           4.098
   260           2.100           0.935           2.749           0.284           4.323           0.236           4.125
   270           2.225           0.935           2.915           0.285           4.350           0.264           4.154
   280           2.348           0.936           3.077           0.287           4.378           0.293           4.185
   290           2.467           0.937           3.235           0.289           4.409           0.324           4.218
   300           2.583           0.937           3.390           0.292           4.440           0.356           4.253
   310           2.695           0.938           3.540           0.294           4.474           0.390           4.289
   320           2.804           0.939           3.686           0.296           4.508           0.426           4.327
   330           2.909           0.939           3.827           0.299           4.544           0.462           4.366
   340           3.011           0.940           3.963           0.301           4.581           0.500           4.406
   350           3.109           0.941           4.096           0.304           4.620           0.539           4.448
   360           3.204           0.941           4.223           0.307           4.660           0.580           4.491
   370           3.295           0.942           4.346           0.309           4.701           0.622           4.535
   380           3.383           0.943           4.465           0.312           4.743           0.664           4.581
   390           3.467           0.943           4.580           0.315           4.786           0.708           4.627
   400           3.549           0.944           4.690           0.318           4.831           0.753           4.675
   410           3.627           0.944           4.797           0.321           4.876           0.799           4.723
   420           3.702           0.945           4.899           0.325           4.923           0.846           4.772
   430           3.774           0.946           4.997           0.328           4.970           0.894           4.822
   440           3.844           0.946           5.092           0.331           5.018           0.943           4.873
   450           3.910           0.947           5.183           0.334           5.068           0.992           4.925
   460           3.974           0.947           5.271           0.338           5.118           1.043           4.978
   470           4.036           0.948           5.356           0.341           5.168           1.094           5.031
   480           4.095           0.948           5.437           0.345           5.220           1.146           5.085
   490           4.152           0.948           5.515           0.348           5.273           1.199           5.140
   500           4.207           0.949           5.590           0.352           5.326           1.252           5.196
   510           4.259           0.949           5.662           0.356           5.380           1.307           5.252
   520           4.310           0.950           5.732           0.359           5.434           1.361           5.309
   530           4.359           0.950           5.799           0.363           5.489           1.417           5.366
   540           4.405           0.950           5.863           0.367           5.545           1.473           5.424
   550           4.450           0.951           5.925           0.371           5.602           1.530           5.482
   560           4.494           0.951           5.985           0.374           5.659           1.587           5.541
   570           4.535           0.951           6.043           0.378           5.716           1.645           5.601
   580           4.575           0.952           6.098           0.382           5.774           1.703           5.661
   590           4.614           0.952           6.151           0.386           5.833           1.762           5.721
   600           4.651           0.952           6.203           0.390           5.892           1.822           5.782
   610           4.687           0.953           6.252           0.394           5.952           1.882           5.843
   620           4.722           0.953           6.300           0.398           6.012           1.942           5.905
   630           4.755           0.953           6.346           0.402           6.072           2.003           5.967
   640           4.787           0.953           6.391           0.406           6.133           2.064           6.030
   650           4.818           0.954           6.434           0.411           6.195           2.125           6.093
   660           4.848           0.954           6.475           0.415           6.257           2.187           6.156
   670           4.877           0.954           6.515           0.419           6.319           2.250           6.219
   680           4.904           0.954           6.554           0.423           6.381           2.313           6.283
   690           4.931           0.954           6.591           0.427           6.444           2.376           6.348
   700           4.957           0.955           6.627           0.432           6.508           2.439           6.412
   710           4.982           0.955           6.662           0.436           6.571           2.503           6.477
   720           5.006           0.955           6.696           0.440           6.635           2.567           6.542
   730           5.030           0.955           6.728           0.445           6.699           2.631           6.608
   740           5.052           0.955           6.760           0.449           6.764           2.696           6.674
   750           5.074           0.956           6.790           0.453           6.829           2.761           6.740
   760           5.095           0.956           6.819           0.458           6.894           2.826           6.806
   770           5.116           0.956           6.848           0.462           6.960           2.892           6.872
   780           5.136           0.956           6.876           0.466           7.025           2.958           6.939
   790           5.155           0.956           6.902           0.471           7.091           3.024           7.006
   800           5.174           0.956           6.928           0.475           7.157           3.090           7.074
   810           5.192           0.956           6.953           0.480           7.224           3.157           7.141
   820           5.209           0.957           6.978           0.484           7.291           3.224           7.209
   830           5.226           0.957           7.001           0.489           7.357           3.291           7.277
   840           5.242           0.957           7.024           0.493           7.425           3.358           7.345
   850           5.258           0.957           7.046           0.498           7.492           3.425           7.413
   860           5.274           0.957           7.068           0.502           7.560           3.493           7.481
   870           5.289           0.957           7.089           0.507           7.627           3.561           7.550
   880           5.303           0.957           7.109           0.511           7.695           3.629           7.619
   890           5.317           0.957           7.129           0.516           7.763           3.697           7.688
   900           5.331           0.957           7.148           0.521           7.832           3.766           7.757
   910           5.344           0.958           7.166           0.525           7.900           3.834           7.826
   920           5.357           0.958           7.184           0.530           7.969           3.903           7.896
   930           5.370           0.958           7.202           0.534           8.038           3.972           7.966
   940           5.382           0.958           7.219           0.539           8.107           4.041           8.035
   950           5.394           0.958           7.236           0.544           8.176           4.111           8.105
   960           5.405           0.958           7.252           0.548           8.246           4.180           8.175
   970           5.417           0.958           7.267           0.553           8.315           4.250           8.246
   980           5.427           0.958           7.283           0.558           8.385           4.319           8.316
   990           5.438           0.958           7.298           0.562           8.455           4.389           8.386
  1000           5.448           0.958           7.312           0.567           8.524           4.459           8.457
  1010           5.458           0.958           7.326           0.572           8.595           4.529           8.528
  1020           5.468           0.959           7.340           0.577           8.665           4.600           8.599
  1030           5.478           0.959           7.353           0.581           8.735           4.670           8.670
  1040           5.487           0.959           7.366           0.586           8.806           4.741           8.741
  1050           5.496           0.959           7.379           0.591           8.876           4.811           8.812
  1060           5.505           0.959           7.391           0.595           8.947           4.882           8.883
  1070           5.514           0.959           7.403           0.600           9.018           4.953           8.955
  1080           5.522           0.959           7.415           0.605           9.089           5.024           9.026
  1090           5.530           0.959           7.426           0.610           9.160           5.095           9.098
  1100           5.538           0.959           7.437           0.614           9.231           5.166           9.169
  1110           5.546           0.959           7.448           0.619           9.302           5.238           9.241
  1120           5.553           0.959           7.459           0.624           9.374           5.309           9.313
  1130           5.561           0.959           7.469           0.629           9.445           5.381           9.385
  1140           5.568           0.959           7.479           0.634           9.517           5.452           9.457
  1150           5.575           0.959           7.489           0.638           9.588           5.524           9.529
  1160           5.582           0.959           7.499           0.643           9.660           5.596           9.602
  1170           5.589           0.959           7.508           0.648           9.732           5.668           9.674
  1180           5.595           0.959           7.517           0.653           9.804           5.740           9.746
  1190           5.602           0.959           7.526           0.658           9.876           5.812           9.819
  1200           5.608           0.960           7.535           0.663           9.948           5.884           9.892
  1210           5.614           0.960           7.544           0.667          10.020           5.956           9.964
  1220           5.620           0.960           7.552           0.672          10.092           6.028          10.037
  1230           5.626           0.960           7.560           0.677          10.165           6.101          10.110
  1240           5.632           0.960           7.568           0.682          10.237           6.173          10.183
  1250           5.637           0.960           7.576           0.687          10.310           6.246          10.256
  1260           5.643           0.960           7.584           0.692          10.382           6.318          10.329
  1270           5.648           0.960           7.591           0.696          10.455           6.391          10.402
  1280           5.653           0.960           7.599           0.701          10.528           6.464          10.475
  1290           5.658           0.960           7.606           0.706          10.600           6.537          10.548
  1300           5.663           0.960           7.613           0.711          10.673           6.609          10.621
  1310           5.668           0.960           7.620           0.716          10.746           6.682          10.695
  1320           5.673           0.960           7.626           0.721          10.819           6.755          10.768
  1330           5.678           0.960           7.633           0.726          10.892           6.829          10.841
  1340           5.682           0.960           7.639           0.731          10.965           6.902          10.915
  1350           5.687           0.960           7.646           0.736          11.039           6.975          10.988
  1360           5.691           0.960           7.652           0.740          11.112           7.048          11.062
  1370           5.695           0.960           7.658           0.745          11.185           7.121          11.136
  1380           5.700           0.960           7.664           0.750          11.258           7.195          11.209
  1390           5.704           0.960           7.669           0.755          11.332           7.268          11.283
  1400           5.708           0.960           7.675           0.760          11.405           7.342          11.357
  1410           5.712           0.960           7.681           0.765          11.479           7.415          11.431
  1420           5.716           0.960           7.686           0.770          11.552           7.489          11.505
  1430           5.719           0.960           7.691           0.775          11.626           7.563          11.579
  1440           5.723           0.960           7.697           0.780          11.700           7.636          11.653
  1450           5.727           0.960           7.702           0.785          11.773           7.710          11.727
  1460           5.730           0.960           7.707           0.790          11.847           7.784          11.801
  1470           5.734           0.960           7.712           0.795          11.921           7.858          11.875
  1480           5.737           0.960           7.717           0.800          11.995           7.932          11.949
  1490           5.741           0.960           7.721           0.804          12.069           8.006          12.023
  1500           5.744           0.961           7.726           0.809          12.143           8.079          12.098
  1510           5.747           0.961           7.731           0.814          12.217           8.154          12.172
  1520           5.751           0.961           7.735           0.819          12.291           8.228          12.246
  1530           5.754           0.961           7.740           0.824          12.365           8.302          12.321
  1540           5.757           0.961           7.744           0.829          12.439           8.376          12.395
  1550           5.760           0.961           7.748           0.834          12.513           8.450          12.469
  1560           5.763           0.961           7.752           0.839          12.587           8.524          12.544
  1570           5.766           0.961           7.756           0.844          12.662           8.599          12.618
  1580           5.769           0.961           7.760           0.849          12.736           8.673          12.693
  1590           5.771           0.961           7.764           0.854          12.810           8.747          12.768
  1600           5.774           0.961           7.768           0.859          12.885           8.822          12.842
  1610           5.777           0.961           7.772           0.864          12.959           8.896          12.917
  1620           5.780           0.961           7.776           0.869          13.033           8.970          12.992
  1630           5.782           0.961           7.779           0.874          13.108           9.045          13.066
  1640           5.785           0.961           7.783           0.879          13.182           9.119          13.141
  1650           5.787           0.961           7.787           0.884          13.257           9.194          13.216
  1660           5.790           0.961           7.790           0.889          13.332           9.269          13.291
  1670           5.792           0.961           7.794           0.894          13.406           9.343          13.366
  1680           5.795           0.961           7.797           0.899          13.481           9.418          13.440
  1690           5.797           0.961           7.800           0.904          13.555           9.493          13.515
  1700           5.799           0.961           7.803           0.909          13.630           9.567          13.590
  1710           5.801           0.961           7.807           0.914          13.705           9.642          13.665
  1720           5.804           0.961           7.810           0.919          13.780           9.717          13.740
  1730           5.806           0.961           7.813           0.924          13.854           9.792          13.815
  1740           5.808           0.961           7.816           0.929          13.929           9.866          13.890
  1750           5.810           0.961           7.819           0.934          14.004           9.941          13.965
  1760           5.812           0.961           7.822           0.939          14.079          10.016          14.041
  1770           5.814           0.961           7.825           0.944          14.154          10.091          14.116
  1780           5.816           0.961           7.828           0.949          14.229          10.166          14.191
  1790           5.818           0.961           7.830           0.954          14.304          10.241          14.266
  1800           5.820           0.961           7.833           0.959          14.379          10.316          14.341
  1810           5.822           0.961           7.836           0.964          14.454          10.391          14.416
  1820           5.824           0.961           7.839           0.969          14.529          10.466          14.492
  1830           5.826           0.961           7.841           0.974          14.604          10.541          14.567
  1840           5.828           0.961           7.844           0.979          14.679          10.616          14.642
  1850           5.830           0.961           7.846           0.984          14.754          10.692          14.718
  1860           5.832           0.961           7.849           0.989          14.829          10.767          14.793
  1870           5.833           0.961           7.851           0.994          14.905          10.842          14.868
  1880           5.835           0.961           7.854           0.999          14.980          10.917          14.944
  1890           5.837           0.961           7.856           1.004          15.055          10.992          15.019
  1900           5.838           0.961           7.858           1.009          15.130          11.068          15.094
  1910           5.840           0.961           7.861           1.014          15.205          11.143          15.170
  1920           5.842           0.961           7.863           1.019          15.281          11.218          15.245
  1930           5.843           0.961           7.865           1.024          15.356          11.293          15.321
  1940           5.845           0.961           7.868           1.029          15.431          11.369          15.396
  1950           5.846           0.961           7.870           1.034          15.507          11.444          15.472
  1960           5.848           0.961           7.872           1.039          15.582          11.519          15.547
  1970           5.849           0.961           7.874           1.044          15.657          11.595          15.623
  1980           5.851           0.961           7.876           1.050          15.733          11.670          15.699
  1990           5.852           0.961           7.878           1.055          15.808          11.746          15.774
  2000           5.854           0.961           7.880           1.060          15.884          11.821          15.850
  2010           5.855           0.961           7.882           1.065          15.959          11.897          15.925
  2020           5.857           0.961           7.884           1.070          16.035          11.972          16.001
  2030           5.858           0.961           7.886           1.075          16.110          12.048          16.077
  2040           5.859           0.961           7.888           1.080          16.186          12.123          16.152
  2050           5.861           0.961           7.890           1.085          16.261          12.199          16.228
  2060           5.862           0.961           7.892           1.090          16.337          12.274          16.304
  2070           5.863           0.961           7.894           1.095          16.412          12.350          16.380
  2080           5.865           0.961           7.895           1.100          16.488          12.425          16.455
  2090           5.866           0.961           7.897           1.105          16.564          12.501          16.531
  2100           5.867           0.961           7.899           1.110          16.639          12.577          16.607
  2110           5.868           0.961           7.901           1.115          16.715          12.652          16.683
  2120           5.870           0.961           7.902           1.120          16.790          12.728          16.758
  2130           5.871           0.961           7.904           1.125          16.866          12.804          16.834
  2140           5.872           0.961           7.906           1.130          16.942          12.879          16.910
  2150           5.873           0.961           7.907           1.135          17.018          12.955          16.986
  2160           5.874           0.961           7.909           1.140          17.093          13.031          17.062
  2170           5.875           0.961           7.911           1.146          17.169          13.107          17.138
  2180           5.877           0.961           7.912           1.151          17.245          13.182          17.214
  2190           5.878           0.961           7.914           1.156          17.321          13.258          17.290
  2200           5.879           0.961           7.915           1.161          17.396          13.334          17.365
  2210           5.880           0.961           7.917           1.166          17.472          13.410          17.441
  2220           5.881           0.962           7.918           1.171          17.548          13.486          17.517
  2230           5.882           0.962           7.920           1.176          17.624          13.561          17.593
  2240           5.883           0.962           7.921           1.181          17.700          13.637          17.669
  2250           5.884           0.962           7.923           1.186          17.775          13.713          17.745
  2260           5.885           0.962           7.924           1.191          17.851          13.789          17.821
  2270           5.886           0.962           7.925           1.196          17.927          13.865          17.897
  2280           5.887           0.962           7.927           1.201          18.003          13.941          17.973
  2290           5.888           0.962           7.928           1.206          18.079          14.017          18.049
  2300           5.889           0.962           7.929           1.211          18.155          14.093          18.125
  2310           5.890           0.962           7.931           1.217          18.231          14.169          18.201
  2320           5.891           0.962           7.932           1.222          18.307          14.244          18.278
  2330           5.892           0.962           7.933           1.227          18.383          14.320          18.354
  2340           5.893           0.962           7.935           1.232          18.459          14.396          18.430
  2350           5.894           0.962           7.936           1.237          18.535          14.472          18.506
  2360           5.894           0.962           7.937           1.242          18.611          14.548          18.582
  2370           5.895           0.962           7.938           1.247          18.687          14.624          18.658
  2380           5.896           0.962           7.940           1.252          18.763          14.700          18.734
  2390           5.897           0.962           7.941           1.257          18.839          14.777          18.810
  2400           5.898           0.962           7.942           1.262          18.915          14.853          18.887
  2410           5.899           0.962           7.943           1.267          18.991          14.929          18.963
  2420           5.900           0.962           7.944           1.272          19.067          15.005          19.039
  2430           5.900           0.962           7.946           1.277          19.143          15.081          19.115
  2440           5.901           0.962           7.947           1.283          19.219          15.157          19.191
  2450           5.902           0.962           7.948           1.288          19.295          15.233          19.267
  2460           5.903           0.962           7.949           1.293          19.371          15.309          19.344
  2470           5.903           0.962           7.950           1.298          19.447          15.385          19.420
  2480           5.904           0.962           7.951           1.303          19.524          15.461          19.496
  2490           5.905           0.962           7.952           1.308          19.600          15.537          19.572
  2500           5.906           0.962           7.953           1.313          19.676          15.614          19.649
  2510           5.907           0.962           7.954           1.318          19.752          15.690          19.725
  2520           5.907           0.962           7.955           1.323          19.828          15.766          19.801
  2530           5.908           0.962           7.956           1.328          19.904          15.842          19.877
  2540           5.909           0.962           7.957           1.333          19.980          15.918          19.954
  2550           5.909           0.962           7.958           1.339          20.057          15.995          20.030
  2560           5.910           0.962           7.959           1.344          20.133          16.071          20.106
  2570           5.911           0.962           7.960           1.349          20.209          16.147          20.183
  2580           5.911           0.962           7.961           1.354          20.285          16.223          20.259
  2590           5.912           0.962           7.962           1.359          20.362          16.299          20.335
  2600           5.913           0.962           7.963           1.364          20.438          16.376          20.412
  2610           5.913           0.962           7.964           1.369          20.514          16.452          20.488
  2620           5.914           0.962           7.965           1.374          20.590          16.528          20.564
  2630           5.915           0.962           7.966           1.379          20.667          16.604          20.641
  2640           5.915           0.962           7.967           1.384          20.743          16.681          20.717
  2650           5.916           0.962           7.968           1.389          20.819          16.757          20.794
  2660           5.917           0.962           7.968           1.395          20.895          16.833          20.870
  2670           5.917           0.962           7.969           1.400          20.972          16.910          20.946
  2680           5.918           0.962           7.970           1.405          21.048          16.986          21.023
  2690           5.918           0.962           7.971           1.410          21.124          17.062          21.099
  2700           5.919           0.962           7.972           1.415          21.201          17.139          21.176
  2710           5.920           0.962           7.973           1.420          21.277          17.215          21.252
  2720           5.920           0.962           7.973           1.425          21.353          17.291          21.328
  2730           5.921           0.962           7.974           1.430          21.430          17.368          21.405
  2740           5.921           0.962           7.975           1.435          21.506          17.444          21.481
  2750           5.922           0.962           7.976           1.440          21.582          17.520          21.558
  2760           5.923           0.962           7.977           1.446          21.659          17.597          21.634
  2770           5.923           0.962           7.977           1.451          21.735          17.673          21.711
  2780           5.924           0.962           7.978           1.456          21.812          17.750          21.787
  2790           5.924           0.962           7.979           1.461          21.888          17.826          21.864
  2800           5.925           0.962           7.980           1.466          21.964          17.902          21.940
  2810           5.925           0.962           7.980           1.471          22.041          17.979          22.017
  2820           5.926           0.962           7.981           1.476          22.117          18.055          22.093
  2830           5.926           0.962           7.982           1.481          22.194          18.132          22.170
  2840           5.927           0.962           7.983           1.486          22.270          18.208          22.246
  2850           5.927           0.962           7.983           1.492          22.347          18.285          22.323
  2860           5.928           0.962           7.984           1.497          22.423          18.361          22.399
  2870           5.928           0.962           7.985           1.502          22.499          18.437          22.476
  2880           5.929           0.962           7.985           1.507          22.576          18.514          22.552
  2890           5.929           0.962           7.986           1.512          22.652          18.590          22.629
  2900           5.930           0.962           7.987           1.517          22.729          18.667          22.705
  2910           5.930           0.962           7.988           1.522          22.805          18.743          22.782
  2920           5.931           0.962           7.988           1.527          22.882          18.820          22.859
  2930           5.931           0.962           7.989           1.532          22.958          18.896          22.935
  2940           5.932           0.962           7.989           1.538          23.035          18.973          23.012
  2950           5.932           0.962           7.990           1.543          23.111          19.049          23.088
  2960           5.933           0.962           7.991           1.548          23.188          19.126          23.165
  2970           5.933           0.962           7.991           1.553          23.264          19.202          23.242
  2980           5.933           0.962           7.992           1.558          23.341          19.279          23.318
  2990           5.934           0.962           7.993           1.563          23.417          19.355          23.395
  3000           5.934           0.962           7.993           1.568          23.494          19.432          23.471
  3010           5.935           0.962           7.994           1.573          23.570          19.509          23.548
  3020           5.935           0.962           7.994           1.578          23.647          19.585          23.625
  3030           5.936           0.962           7.995           1.584          23.724          19.662          23.701
  3040           5.936           0.962           7.996           1.589          23.800          19.738          23.778
  3050           5.936           0.962           7.996           1.594          23.877          19.815          23.854
  3060           5.937           0.962           7.997           1.599          23.953          19.891          23.931
  3070           5.937           0.962           7.997           1.604          24.030          19.968          24.008
  3080           5.938           0.962           7.998           1.609          24.106          20.044          24.084
  3090           5.938           0.962           7.999           1.614          24.183          20.121          24.161
  3100           5.938           0.962           7.999           1.619          24.260          20.198          24.238
  3110           5.939           0.962           8.000           1.624          24.336          20.274          24.314
  3120           5.939           0.962           8.000           1.630          24.413          20.351          24.391
  3130           5.940           0.962           8.001           1.635          24.489          20.427          24.468
  3140           5.940           0.962           8.001           1.640          24.566          20.504          24.544
  3150           5.940           0.962           8.002           1.645          24.643          20.581          24.621
  3160           5.941           0.962           8.002           1.650          24.719          20.657          24.698
  3170           5.941           0.962           8.003           1.655          24.796          20.734          24.774
  3180           5.941           0.962           8.003           1.660          24.873          20.811          24.851
  3190           5.942           0.962           8.004           1.665          24.949          20.887          24.928
  3200           5.942           0.962           8.004           1.671          25.026          20.964          25.005
  3210           5.943           0.962           8.005           1.676          25.102          21.041          25.081
  3220           5.943           0.962           8.005           1.681          25.179          21.117          25.158
  3230           5.943           0.962           8.006           1.686          25.256          21.194          25.235
  3240           5.944           0.962           8.006           1.691          25.332          21.270          25.311
  3250           5.944           0.962           8.007           1.696          25.409          21.347          25.388
  3260           5.944           0.962           8.007           1.701          25.486          21.424          25.465
  3270           5.945           0.962           8.008           1.706          25.562          21.501          25.542
  3280           5.945           0.962           8.008           1.712          25.639          21.577          25.618
  3290           5.945           0.962           8.009           1.717          25.716          21.654          25.695
  3300           5.946           0.962           8.009           1.722          25.792          21.731          25.772
  3310           5.946           0.962           8.010           1.727          25.869          21.807          25.849
  3320           5.946           0.962           8.010           1.732          25.946          21.884          25.925
  3330           5.947           0.962           8.011           1.737          26.023          21.961          26.002
  3340           5.947           0.962           8.011           1.742          26.099          22.037          26.079
  3350           5.947           0.962           8.011           1.747          26.176          22.114          26.156
  3360           5.948           0.962           8.012           1.753          26.253          22.191          26.232
  3370           5.948           0.962           8.012           1.758          26.329          22.268          26.309
  3380           5.948           0.962           8.013           1.763          26.406          22.344          26.386
  3390           5.948           0.962           8.013           1.768          26.483          22.421          26.463
  3400           5.949           0.962           8.014           1.773          26.560          22.498          26.540
  3410           5.949           0.962           8.014           1.778          26.636          22.574          26.616
  3420           5.949           0.962           8.014           1.783          26.713          22.651          26.693
  3430           5.950           0.962           8.015           1.788          26.790          22.728          26.770
  3440           5.950           0.962           8.015           1.794          26.867          22.805          26.847
  3450           5.950           0.962           8.016           1.799          26.943          22.881          26.924
  3460           5.950           0.962           8.016           1.804          27.020          22.958          27.000
  3470           5.951           0.962           8.016           1.809          27.097          23.035          27.077
  3480           5.951           0.962           8.017           1.814          27.174          23.112          27.154
  3490           5.951           0.962           8.017           1.819          27.250          23.188          27.231
  3500           5.952           0.962           8.018           1.824          27.327          23.265          27.308
  3510           5.952           0.962           8.018           1.829          27.404          23.342          27.385
  3520           5.952           0.962           8.018           1.835          27.481          23.419          27.461
  3530           5.952           0.962           8.019           1.840          27.557          23.496          27.538
  3540           5.953           0.962           8.019           1.845          27.634          23.572          27.615
  3550           5.953           0.962           8.020           1.850          27.711          23.649          27.692
  3560           5.953           0.962           8.020           1.855          27.788          23.726          27.769
  3570           5.953           0.962           8.020           1.860          27.865          23.803          27.846
  3580           5.954           0.962           8.021           1.865          27.941          23.880          27.922
  3590           5.954           0.962           8.021           1.870          28.018          23.956          27.999
  3600           5.954           0.962           8.021           1.876          28.095          24.033          28.076
  3610           5.955           0.962           8.022           1.881          28.172          24.110          28.153
  3620           5.955           0.962           8.022           1.886          28.249          24.187          28.230
  3630           5.955           0.962           8.022           1.891          28.325          24.264          28.307
  3640           5.955           0.962           8.023           1.896          28.402          24.340          28.384
  3650           5.955           0.962           8.023           1.901          28.479          24.417          28.460
  3660           5.956           0.962           8.023           1.906          28.556          24.494          28.537
  3670           5.956           0.962           8.024           1.912          28.633          24.571          28.614
  3680           5.956           0.962           8.024           1.917          28.710          24.648          28.691
  3690           5.956           0.962           8.024           1.922          28.786          24.725          28.768
  3700           5.957           0.962           8.025           1.927          28.863          24.801          28.845
  3710           5.957           0.962           8.025           1.932          28.940          24.878          28.922
  3720           5.957           0.962           8.025           1.937          29.017          24.955          28.999
  3730           5.957           0.962           8.026           1.942          29.094          25.032          29.076
  3740           5.958           0.962           8.026           1.947          29.171          25.109          29.152
  3750           5.958           0.962           8.026           1.953          29.247          25.186          29.229
  3760           5.958           0.962           8.027           1.958          29.324          25.263          29.306
  3770           5.958           0.962           8.027           1.963          29.401          25.339          29.383
  3780           5.958           0.962           8.027           1.968          29.478          25.416          29.460
  3790           5.959           0.962           8.028           1.973          29.555          25.493          29.537
  3800           5.959           0.962           8.028           1.978          29.632          25.570          29.614
  3810           5.959           0.962           8.028           1.983          29.709          25.647          29.691
  3820           5.959           0.962           8.028           1.989          29.786          25.724          29.768
  3830           5.960           0.962           8.029           1.994          29.862          25.801          29.845
  3840           5.960           0.962           8.029           1.999          29.939          25.877          29.922
  3850           5.960           0.962           8.029           2.004          30.016          25.954          29.999
  3860           5.960           0.962           8.030           2.009          30.093          26.031          30.075
  3870           5.960           0.962           8.030           2.014          30.170          26.108          30.152
  3880           5.961           0.962           8.030           2.019          30.247          26.185          30.229
  3890           5.961           0.962           8.031           2.024          30.324          26.262          30.306
  3900           5.961           0.962           8.031           2.030          30.401          26.339          30.383
  3910           5.961           0.962           8.031           2.035          30.478          26.416          30.460
  3920           5.961           0.962           8.031           2.040          30.554          26.493          30.537
  3930           5.962           0.962           8.032           2.045          30.631          26.570          30.614
  3940           5.962           0.962           8.032           2.050          30.708          26.646          30.691
  3950           5.962           0.962           8.032           2.055          30.785          26.723          30.768
  3960           5.962           0.962           8.032           2.060          30.862          26.800          30.845
  3970           5.962           0.962           8.033           2.066          30.939          26.877          30.922
  3980           5.963           0.962           8.033           2.071          31.016          26.954          30.999
  3990           5.963           0.962           8.033           2.076          31.093          27.031          31.076
  4000           5.963           0.962           8.033           2.081          31.170          27.108          31.153
  4010           5.963           0.962           8.034           2.086          31.247          27.185          31.230
  4020           5.963           0.962           8.034           2.091          31.324          27.262          31.307
  4030           5.963           0.962           8.034           2.096          31.401          27.339          31.384
  4040           5.964           0.962           8.035           2.102          31.477          27.416          31.461
  4050           5.964           0.962           8.035           2.107          31.554          27.493          31.538
  4060           5.964           0.962           8.035           2.112          31.631          27.570          31.615
  4070           5.964           0.962           8.035           2.117          31.708          27.646          31.692
  4080           5.964           0.962           8.036           2.122          31.785          27.723          31.769
  4090           5.965           0.962           8.036           2.127          31.862          27.800          31.846
  4100           5.965           0.962           8.036           2.132          31.939          27.877          31.923
  4110           5.965           0.962           8.036           2.138          32.016          27.954          31.999
  4120           5.965           0.962           8.036           2.143          32.093          28.031          32.076
  4130           5.965           0.962           8.037           2.148          32.170          28.108          32.153
  4140           5.965           0.962           8.037           2.153          32.247          28.185          32.230
  4150           5.966           0.962           8.037           2.158          32.324          28.262          32.307
  4160           5.966           0.962           8.037           2.163          32.401          28.339          32.384
  4170           5.966           0.962           8.038           2.168          32.478          28.416          32.461
  4180           5.966           0.962           8.038           2.174          32.555          28.493          32.538
  4190           5.966           0.962           8.038           2.179          32.632          28.570          32.615
  4200           5.966           0.962           8.038           2.184          32.709          28.647          32.692
  4210           5.966           0.962           8.039           2.189          32.786          28.724          32.769
  4220           5.967           0.962           8.039           2.194          32.863          28.801          32.847
  4230           5.967           0.962           8.039           2.199          32.940          28.878          32.924
  4240           5.967           0.962           8.039           2.204          33.017          28.955          33.001
  4250           5.967           0.962           8.039           2.210          33.094          29.032          33.078
  4260           5.967           0.962           8.040           2.215          33.171          29.109          33.155
  4270           5.967           0.962           8.040           2.220          33.247          29.186          33.232
  4280           5.968           0.962           8.040           2.225          33.324          29.263          33.309
  4290           5.968           0.962           8.040           2.230          33.401          29.340          33.386
  4300           5.968           0.962           8.040           2.235          33.478          29.417          33.463
  4310           5.968           0.962           8.041           2.240          33.555          29.494          33.540
  4320           5.968           0.962           8.041           2.245          33.632          29.571          33.617
  4330           5.968           0.962           8.041           2.251          33.709          29.648          33.694
  4340           5.968           0.962           8.041           2.256          33.786          29.725          33.771
  4350           5.969           0.962           8.042           2.261          33.863          29.802          33.848
  4360           5.969           0.962           8.042           2.266          33.940          29.879          33.925
  4370           5.969           0.962           8.042           2.271          34.017          29.956          34.002
  4380           5.969           0.962           8.042           2.276          34.094          30.033          34.079
  4390           5.969           0.962           8.042           2.282          34.171          30.110          34.156
  4400           5.969           0.962           8.043           2.287          34.248          30.187          34.233
  4410           5.969           0.962           8.043           2.292          34.325          30.264          34.310
  4420           5.970           0.962           8.043           2.297          34.402          30.341          34.387
  4430           5.970           0.962           8.043           2.302          34.479          30.418          34.464
  4440           5.970           0.962           8.043           2.307          34.557          30.495          34.541
  4450           5.970           0.962           8.043           2.312          34.634          30.572          34.618
  4460           5.970           0.962           8.044           2.318          34.711          30.649          34.695
  4470           5.970           0.962           8.044           2.323          34.788          30.726          34.772
  4480           5.970           0.962           8.044           2.328          34.865          30.803          34.849
  4490           5.971           0.962           8.044           2.333          34.942          30.880          34.926
  4500           5.971           0.962           8.044           2.338          35.019          30.957          35.004
  4510           5.971           0.962           8.045           2.343          35.096          31.034          35.081
  4520           5.971           0.962           8.045           2.348          35.173          31.111          35.158
  4530           5.971           0.962           8.045           2.354          35.250          31.188          35.235
  4540           5.971           0.962           8.045           2.359          35.327          31.265          35.312
  4550           5.971           0.962           8.045           2.364          35.404          31.342          35.389
  4560           5.971           0.962           8.045           2.369          35.481          31.419          35.466
  4570           5.972           0.962           8.046           2.374          35.558          31.496          35.543
  4580           5.972           0.962           8.046           2.379          35.635          31.573          35.620
  4590           5.972           0.962           8.046           2.384          35.712          31.650          35.697
  4600           5.972           0.962           8.046           2.390          35.789          31.727          35.774
  4610           5.972           0.962           8.046           2.395          35.866          31.804          35.851
  4620           5.972           0.962           8.047           2.400          35.943          31.881          35.928
  4630           5.972           0.962           8.047           2.405          36.020          31.958          36.005
  4640           5.972           0.962           8.047           2.410          36.097          32.035          36.083
  4650           5.973           0.962           8.047           2.415          36.174          32.113          36.160
  4660           5.973           0.962           8.047           2.420          36.251          32.190          36.237
  4670           5.973           0.962           8.047           2.426          36.328          32.267          36.314
  4680           5.973           0.962           8.047           2.431          36.405          32.344          36.391
  4690           5.973           0.962           8.048           2.436          36.482          32.421          36.468
  4700           5.973           0.962           8.048           2.441          36.560          32.498          36.545
  4710           5.973           0.962           8.048           2.446          36.637          32.575          36.622
  4720           5.973           0.962           8.048           2.451          36.714          32.652          36.699
  4730           5.973           0.962           8.048           2.456          36.791          32.729          36.776
  4740           5.974           0.962           8.048           2.462          36.868          32.806          36.853
  4750           5.974           0.962           8.049           2.467          36.945          32.883          36.931
  4760           5.974           0.962           8.049           2.472          37.022          32.960          37.008
  4770           5.974           0.962           8.049           2.477          37.099          33.037          37.085
  4780           5.974           0.962           8.049           2.482          37.176          33.114          37.162
  4790           5.974           0.962           8.049           2.487          37.253          33.191          37.239
  4800           5.974           0.962           8.049           2.492          37.330          33.268          37.316
  4810           5.974           0.962           8.050           2.498          37.407          33.346          37.393
  4820           5.974           0.962           8.050           2.503          37.484          33.423          37.470
  4830           5.975           0.962           8.050           2.508          37.561          33.500          37.547
  4840           5.975           0.962           8.050           2.513          37.639          33.577          37.624
  4850           5.975           0.962           8.050           2.518          37.716          33.654          37.702
  4860           5.975           0.962           8.050           2.523          37.793          33.731          37.779
  4870           5.975           0.962           8.050           2.529          37.870          33.808          37.856
  4880           5.975           0.962           8.051           2.534          37.947          33.885          37.933
  4890           5.975           0.962           8.051           2.539          38.024          33.962          38.010
  4900           5.975           0.962           8.051           2.544          38.101          34.039          38.087
  4910           5.975           0.962           8.051           2.549          38.178          34.116          38.164
  4920           5.975           0.962           8.051           2.554          38.255          34.193          38.241
  4930           5.976           0.962           8.051           2.559          38.332          34.271          38.319
  4940           5.976           0.962           8.051           2.565          38.409          34.348          38.396
  4950           5.976           0.962           8.052           2.570          38.486          34.425          38.473
  4960           5.976           0.962           8.052           2.575          38.564          34.502          38.550
  4970           5.976           0.962           8.052           2.580          38.641          34.579          38.627
  4980           5.976           0.962           8.052           2.585          38.718          34.656          38.704
  4990           5.976           0.962           8.052           2.590          38.795          34.733          38.781
  5000           5.976           0.962           8.052           2.595          38.872          34.810          38.858
  5010           5.976           0.962           8.052           2.601          38.949          34.887          38.936
  5020           5.976           0.962           8.052           2.606          39.026          34.964          39.013
  5030           5.976           0.962           8.053           2.611          39.103          35.042          39.090
  5040           5.977           0.962           8.053           2.616          39.180          35.119          39.167
  5050           5.977           0.962           8.053           2.621          39.258          35.196          39.244
  5060           5.977           0.962           8.053           2.626          39.335          35.273          39.321
  5070           5.977           0.962           8.053           2.632          39.412          35.350          39.398
  5080           5.977           0.962           8.053           2.637          39.489          35.427          39.475
  5090           5.977           0.962           8.053           2.642          39.566          35.504          39.553
  5100           5.977           0.962           8.054           2.647          39.643          35.581          39.630
  5110           5.977           0.962           8.054           2.652          39.720          35.658          39.707
  5120           5.977           0.962           8.054           2.657          39.797          35.736          39.784
  5130           5.977           0.962           8.054           2.662          39.874          35.813          39.861
  5140           5.977           0.962           8.054           2.668          39.952          35.890          39.938
  5150           5.978           0.962           8.054           2.673          40.029          35.967          40.015
  5160           5.978           0.962           8.054           2.678          40.106          36.044          40.093
  5170           5.978           0.962           8.054           2.683          40.183          36.121          40.170
  5180           5.978           0.962           8.054           2.688          40.260          36.198          40.247
  5190           5.978           0.962           8.055           2.693          40.337          36.275          40.324
  5200           5.978           0.962           8.055           2.698          40.414          36.353          40.401
  5210           5.978           0.962           8.055           2.704          40.491          36.430          40.478
  5220           5.978           0.962           8.055           2.709          40.569          36.507          40.556
  5230           5.978           0.962           8.055           2.714          40.646          36.584          40.633
  5240           5.978           0.962           8.055           2.719          40.723          36.661          40.710
  5250           5.978           0.962           8.055           2.724          40.800          36.738          40.787
  5260           5.978           0.962           8.055           2.729          40.877          36.815          40.864
  5270           5.979           0.962           8.056           2.735          40.954          36.892          40.941
  5280           5.979           0.962           8.056           2.740          41.031          36.970          41.018
  5290           5.979           0.962           8.056           2.745          41.108          37.047          41.096
  5300           5.979           0.962           8.056           2.750          41.186          37.124          41.173
  5310           5.979           0.962           8.056           2.755          41.263          37.201          41.250
  5320           5.979           0.962           8.056           2.760          41.340          37.278          41.327
  5330           5.979           0.962           8.056           2.765          41.417          37.355          41.404
  5340           5.979           0.962           8.056           2.771          41.494          37.432          41.481
  5350           5.979           0.962           8.056           2.776          41.571          37.510          41.559
  5360           5.979           0.962           8.057           2.781          41.648          37.587          41.636
  5370           5.979           0.962           8.057           2.786          41.726          37.664          41.713
  5380           5.979           0.962           8.057           2.791          41.803          37.741          41.790
  5390           5.980           0.962           8.057           2.796          41.880          37.818          41.867
  5400           5.980           0.962           8.057           2.802          41.957          37.895          41.944
  5410           5.980           0.962           8.057           2.807          42.034          37.972          42.022
  5420           5.980           0.962           8.057           2.812          42.111          38.050          42.099
  5430           5.980           0.962           8.057           2.817          42.188          38.127          42.176
  5440           5.980           0.962           8.057           2.822          42.266          38.204          42.253
  5450           5.980           0.962           8.057           2.827          42.343          38.281          42.330
  5460           5.980           0.962           8.058           2.832          42.420          38.358          42.407
  5470           5.980           0.962           8.058           2.838          42.497          38.435          42.485
  5480           5.980           0.962           8.058           2.843          42.574          38.513          42.562
  5490           5.980           0.962           8.058           2.848          42.651          38.590          42.639
  5500           5.980           0.962           8.058           2.853          42.729          38.667          42.716
  5510           5.980           0.962           8.058           2.858          42.806          38.744          42.793
  5520           5.980           0.962           8.058           2.863          42.883          38.821          42.871
  5530           5.981           0.962           8.058           2.869          42.960          38.898          42.948
  5540           5.981           0.962           8.058           2.874          43.037          38.976          43.025
  5550           5.981           0.962           8.058           2.879          43.114          39.053          43.102
  5560           5.981           0.962           8.059           2.884          43.192          39.130          43.179
  5570           5.981           0.962           8.059           2.889          43.269          39.207          43.256
  5580           5.981           0.962           8.059           2.894          43.346          39.284          43.334
  5590           5.981           0.962           8.059           2.899          43.423          39.361          43.411
  5600           5.981           0.962           8.059           2.905          43.500          39.439          43.488
  5610           5.981           0.962           8.059           2.910          43.577          39.516          43.565
  5620           5.981           0.962           8.059           2.915          43.655          39.593          43.642
  5630           5.981           0.962           8.059           2.920          43.732          39.670          43.720
  5640           5.981           0.962           8.059           2.925          43.809          39.747          43.797
  5650           5.981           0.962           8.059           2.930          43.886          39.824          43.874
  5660           5.981           0.962           8.060           2.936          43.963          39.902          43.951
  5670           5.981           0.962           8.060           2.941          44.040          39.979          44.028
  5680           5.982           0.962           8.060           2.946          44.118          40.056          44.106
  5690           5.982           0.962           8.060           2.951          44.195          40.133          44.183
  5700           5.982           0.962           8.060           2.956          44.272          40.210          44.260
  5710           5.982           0.962           8.060           2.961          44.349          40.287          44.337
  5720           5.982           0.962           8.060           2.966          44.426          40.365          44.414
  5730           5.982           0.962           8.060           2.972          44.503          40.442          44.492
  5740           5.982           0.962           8.060           2.977          44.581          40.519          44.569
  5750           5.982           0.962           8.060           2.982          44.658          40.596          44.646
  5760           5.982           0.962           8.060           2.987          44.735          40.673          44.723
  5770           5.982           0.962           8.061           2.992          44.812          40.750          44.800
  5780           5.982           0.962           8.061           2.997          44.889          40.828          44.878
  5790           5.982           0.962           8.061           3.003          44.967          40.905          44.955
  5800           5.982           0.962           8.061           3.008          45.044          40.982          45.032
  5810           5.982           0.962           8.061           3.013          45.121          41.059          45.109
  5820           5.982           0.962           8.061           3.018          45.198          41.136          45.186
  5830           5.982           0.962           8.061           3.023          45.275          41.214          45.264
  5840           5.983           0.962           8.061           3.028          45.352          41.291          45.341
  5850           5.983           0.962           8.061           3.033          45.430          41.368          45.418
  5860           5.983           0.962           8.061           3.039          45.507          41.445          45.495
  5870           5.983           0.962           8.061           3.044          45.584          41.522          45.572
  5880           5.983           0.962           8.061           3.049          45.661          41.600          45.650
  5890           5.983           0.962           8.062           3.054          45.738          41.677          45.727
  5900           5.983           0.962           8.062           3.059          45.816          41.754          45.804
  5910           5.983           0.962           8.062           3.064          45.893          41.831          45.881
  5920           5.983           0.962           8.062           3.070          45.970          41.908          45.958
  5930           5.983           0.962           8.062           3.075          46.047          41.985          46.036
  5940           5.983           0.962           8.062           3.080          46.124          42.063          46.113
  5950           5.983           0.962           8.062           3.085          46.202          42.140          46.190
  5960           5.983           0.962           8.062           3.090          46.279          42.217          46.267
  5970           5.983           0.962           8.062           3.095          46.356          42.294          46.345
  5980           5.983           0.962           8.062           3.100          46.433          42.371          46.422
  5990           5.983           0.962           8.062           3.106          46.510          42.449          46.499
  6000           5.983           0.962           8.062           3.111          46.588          42.526          46.576
  6010           5.984           0.962           8.062           3.116          46.665          42.603          46.653
  6020           5.984           0.962           8.063           3.121          46.742          42.680          46.731
  6030           5.984           0.962           8.063           3.126          46.819          42.757          46.808
  6040           5.984           0.962           8.063           3.131          46.896          42.835          46.885
  6050           5.984           0.962           8.063           3.137          46.974          42.912          46.962
  6060           5.984           0.962           8.063           3.142          47.051          42.989          47.040
  6070           5.984           0.962           8.063           3.147          47.128          43.066          47.117
  6080           5.984           0.962           8.063           3.152          47.205          43.144          47.194
  6090           5.984           0.962           8.063           3.157          47.282          43.221          47.271
  6100           5.984           0.962           8.063           3.162          47.360          43.298          47.348
  6110           5.984           0.962           8.063           3.168          47.437          43.375          47.426
  6120           5.984           0.962           8.063           3.173          47.514          43.452          47.503
  6130           5.984           0.962           8.063           3.178          47.591          43.530          47.580
  6140           5.984           0.962           8.063           3.183          47.668          43.607          47.657
  6150           5.984           0.962           8.064           3.188          47.746          43.684          47.735
  6160           5.984           0.962           8.064           3.193          47.823          43.761          47.812
  6170           5.984           0.962           8.064           3.198          47.900          43.838          47.889
  6180           5.984           0.962           8.064           3.204          47.977          43.916          47.966
  6190           5.984           0.962           8.064           3.209          48.054          43.993          48.043
  6200           5.985           0.962           8.064           3.214          48.132          44.070          48.121
  6210           5.985           0.962           8.064           3.219          48.209          44.147          48.198
  6220           5.985           0.962           8.064           3.224          48.286          44.224          48.275
  6230           5.985           0.962           8.064           3.229          48.363          44.302          48.352
  6240           5.985           0.962           8.064           3.235          48.441          44.379          48.430
  6250           5.985           0.962           8.064           3.240          48.518          44.456          48.507
  6260           5.985           0.962           8.064           3.245          48.595          44.533          48.584
  6270           5.985           0.962           8.064           3.250          48.672          44.611          48.661
  6280           5.985           0.962           8.064           3.255          48.749          44.688          48.739
  6290           5.985           0.962           8.065           3.260          48.827          44.765          48.816
  6300           5.985           0.962           8.065           3.266          48.904          44.842          48.893
  6310           5.985           0.962           8.065           3.271          48.981          44.919          48.970
  6320           5.985           0.962           8.065           3.276          49.058          44.997          49.048
  6330           5.985           0.962           8.065           3.281          49.136          45.074          49.125
  6340           5.985           0.962           8.065           3.286          49.213          45.151          49.202
  6350           5.985           0.962           8.065           3.291          49.290          45.228          49.279
  6360           5.985           0.962           8.065           3.296          49.367          45.306          49.357
  6370           5.985           0.962           8.065           3.302          49.444          45.383          49.434
  6380           5.985           0.962           8.065           3.307          49.522          45.460          49.511
  6390           5.985           0.962           8.065           3.312          49.599          45.537          49.588
  6400           5.985           0.962           8.065           3.317          49.676          45.614          49.665
  6410           5.986           0.962           8.065           3.322          49.753          45.692          49.743
  6420           5.986           0.962           8.065           3.327          49.831          45.769          49.820
  6430           5.986           0.962           8.065           3.333          49.908          45.846          49.897
  6440           5.986           0.962           8.065           3.338          49.985          45.923          49.974
  6450           5.986           0.962           8.066           3.343          50.062          46.001          50.052
  6460           5.986           0.962           8.066           3.348          50.139          46.078          50.129
  6470           5.986           0.962           8.066           3.353          50.217          46.155          50.206
  6480           5.986           0.962           8.066           3.358          50.294          46.232          50.283
  6490           5.986           0.962           8.066           3.364          50.371          46.310          50.361
  6500           5.986           0.962           8.066           3.369          50.448          46.387          50.438
  6510           5.986           0.962           8.066           3.374          50.526          46.464          50.515
  6520           5.986           0.962           8.066           3.379          50.603          46.541          50.592
  6530           5.986           0.962           8.066           3.384          50.680          46.618          50.670
  6540           5.986           0.962           8.066           3.389          50.757          46.696          50.747
  6550           5.986           0.962           8.066           3.394          50.835          46.773          50.824
  6560           5.986           0.962           8.066           3.400          50.912          46.850          50.901
  6570           5.986           0.962           8.066           3.405          50.989          46.927          50.979
  6580           5.986           0.962           8.066           3.410          51.066          47.005          51.056
  6590           5.986           0.962           8.066           3.415          51.144          47.082          51.133
  6600           5.986           0.962           8.066           3.420          51.221          47.159          51.210
  6610           5.986           0.962           8.067           3.425          51.298          47.236          51.288
  6620           5.986           0.962           8.067           3.431          51.375          47.314          51.365
  6630           5.986           0.962           8.067           3.436          51.452          47.391          51.442
  6640           5.986           0.962           8.067           3.441          51.530          47.468          51.519
  6650           5.987           0.962           8.067           3.446          51.607          47.545          51.597
  6660           5.987           0.962           8.067           3.451          51.684          47.623          51.674
  6670           5.987           0.962           8.067           3.456          51.761          47.700          51.751
  6680           5.987           0.962           8.067           3.462          51.839          47.777          51.829
  6690           5.987           0.962           8.067           3.467          51.916          47.854          51.906
  6700           5.987           0.962           8.067           3.472          51.993          47.932          51.983
  6710           5.987           0.962           8.067           3.477          52.070          48.009          52.060
  6720           5.987           0.962           8.067           3.482          52.148          48.086          52.138
  6730           5.987           0.962           8.067           3.487          52.225          48.163          52.215
  6740           5.987           0.962           8.067           3.492          52.302          48.241          52.292
  6750           5.987           0.962           8.067           3.498          52.379          48.318          52.369
  6760           5.987           0.962           8.067           3.503          52.457          48.395          52.447
  6770           5.987           0.962           8.067           3.508          52.534          48.472          52.524
  6780           5.987           0.962           8.067           3.513          52.611          48.550          52.601
  6790           5.987           0.962           8.068           3.518          52.688          48.627          52.678
  6800           5.987           0.962           8.068           3.523          52.766          48.704          52.756
  6810           5.987           0.962           8.068           3.529          52.843          48.781          52.833
  6820           5.987           0.962           8.068           3.534          52.920          48.859          52.910
  6830           5.987           0.962           8.068           3.539          52.997          48.936          52.987
  6840           5.987           0.962           8.068           3.544          53.075          49.013          53.065
  6850           5.987           0.962           8.068           3.549          53.152          49.090          53.142
  6860           5.987           0.962           8.068           3.554          53.229          49.168          53.219
  6870           5.987           0.962           8.068           3.560          53.306          49.245          53.297
  6880           5.987           0.962           8.068           3.565          53.384          49.322          53.374
  6890           5.987           0.962           8.068           3.570          53.461          49.399          53.451
  6900           5.987           0.962           8.068           3.575          53.538          49.477          53.528
  6910           5.988           0.962           8.068           3.580          53.615          49.554          53.606
  6920           5.988           0.962           8.068           3.585          53.693          49.631          53.683
  6930           5.988           0.962           8.068           3.591          53.770          49.708          53.760
  6940           5.988           0.962           8.068           3.596          53.847          49.786          53.837
  6950           5.988           0.962           8.068           3.601          53.924          49.863          53.915
  6960           5.988           0.962           8.068           3.606          54.002          49.940          53.992
  6970           5.988           0.962           8.068           3.611          54.079          50.017          54.069
  6980           5.988           0.962           8.068           3.616          54.156          50.095          54.146
  6990           5.988           0.962           8.069           3.621          54.233          50.172          54.224
  7000           5.988           0.962           8.069           3.627          54.311          50.249          54.301
  7010           5.988           0.962           8.069           3.632          54.388          50.326          54.378
  7020           5.988           0.962           8.069           3.637          54.465          50.404          54.456
  7030           5.988           0.962           8.069           3.642          54.542          50.481          54.533
  7040           5.988           0.962           8.069           3.647          54.620          50.558          54.610
  7050           5.988           0.962           8.069           3.652          54.697          50.635          54.687
  7060           5.988           0.962           8.069           3.658          54.774          50.713          54.765
  7070           5.988           0.962           8.069           3.663          54.852          50.790          54.842
  7080           5.988           0.962           8.069           3.668          54.929          50.867          54.919
  7090           5.988           0.962           8.069           3.673          55.006          50.944          54.996
  7100           5.988           0.962           8.069           3.678          55.083          51.022          55.074
  7110           5.988           0.962           8.069           3.683          55.161          51.099          55.151
  7120           5.988           0.962           8.069           3.689          55.238          51.176          55.228
  7130           5.988           0.962           8.069           3.694          55.315          51.253          55.306
  7140           5.988           0.962           8.069           3.699          55.392          51.331          55.383
  7150           5.988           0.962           8.069           3.704          55.470          51.408          55.460
  7160           5.988           0.962           8.069           3.709          55.547          51.485          55.537
  7170           5.988           0.962           8.069           3.714          55.624          51.563          55.615
  7180           5.988           0.962           8.069           3.720          55.701          51.640          55.692
  7190           5.988           0.962           8.069           3.725          55.779          51.717          55.769
  7200           5.989           0.962           8.070           3.730          55.856          51.794          55.847
  7210           5.989           0.962           8.070           3.735          55.933          51.872          55.924
  7220           5.989           0.962           8.070           3.740          56.011          51.949          56.001
  7230           5.989           0.962           8.070           3.745          56.088          52.026          56.078
  7240           5.989           0.962           8.070           3.750          56.165          52.103          56.156
  7250           5.989           0.962           8.070           3.756          56.242          52.181          56.233
  7260           5.989           0.962           8.070           3.761          56.320          52.258          56.310
  7270           5.989           0.962           8.070           3.766          56.397          52.335          56.388
  7280           5.989           0.962           8.070           3.771          56.474          52.413          56.465
  7290           5.989           0.962           8.070           3.776          56.551          52.490          56.542
  7300           5.989           0.962           8.070           3.781          56.629          52.567          56.619
  7310           5.989           0.962           8.070           3.787          56.706          52.644          56.697
  7320           5.989           0.962           8.070           3.792          56.783          52.722          56.774
  7330           5.989           0.962           8.070           3.797          56.861          52.799          56.851
  7340           5.989           0.962           8.070           3.802          56.938          52.876          56.929
  7350           5.989           0.962           8.070           3.807          57.015          52.953          57.006
  7360           5.989           0.962           8.070           3.812          57.092          53.031          57.083
  7370           5.989           0.962           8.070           3.818          57.170          53.108          57.160
  7380           5.989           0.962           8.070           3.823          57.247          53.185          57.238
  7390           5.989           0.962           8.070           3.828          57.324          53.263          57.315
  7400           5.989           0.962           8.070           3.833          57.401          53.340          57.392
  7410           5.989           0.962           8.070           3.838          57.479          53.417          57.470
  7420           5.989           0.962           8.070           3.843          57.556          53.494          57.547
  7430           5.989           0.962           8.070           3.849          57.633          53.572          57.624
  7440           5.989           0.962           8.071           3.854          57.711          53.649          57.701
  7450           5.989           0.962           8.071           3.859          57.788          53.726          57.779
  7460           5.989           0.962           8.071           3.864          57.865          53.803          57.856
  7470           5.989           0.962           8.071           3.869          57.942          53.881          57.933
  7480           5.989           0.962           8.071           3.874          58.020          53.958          58.011
  7490           5.989           0.962           8.071           3.879          58.097          54.035          58.088
  7500           5.989           0.962           8.071           3.885          58.174          54.113          58.165
  7510           5.989           0.962           8.071           3.890          58.251          54.190          58.242
  7520           5.989           0.962           8.071           3.895          58.329          54.267          58.320
  7530           5.989           0.962           8.071           3.900          58.406          54.344          58.397
  7540           5.990           0.962           8.071           3.905          58.483          54.422          58.474
  7550           5.990           0.962           8.071           3.910          58.561          54.499          58.552
  7560           5.990           0.962           8.071           3.916          58.638          54.576          58.629
  7570           5.990           0.962           8.071           3.921          58.715          54.654          58.706
  7580           5.990           0.962           8.071           3.926          58.792          54.731          58.784
  7590           5.990           0.962           8.071           3.931          58.870          54.808          58.861
  7600           5.990           0.962           8.071           3.936          58.947          54.885          58.938
  7610           5.990           0.962           8.071           3.941          59.024          54.963          59.015
  7620           5.990           0.962           8.071           3.947          59.102          55.040          59.093
  7630           5.990           0.962           8.071           3.952          59.179          55.117          59.170
  7640           5.990           0.962           8.071           3.957          59.256          55.195          59.247
  7650           5.990           0.962           8.071           3.962          59.333          55.272          59.325
  7660           5.990           0.962           8.071           3.967          59.411          55.349          59.402
  7670           5.990           0.962           8.071           3.972          59.488          55.426          59.479
  7680           5.990           0.962           8.071           3.978          59.565          55.504          59.556
  7690           5.990           0.962           8.072           3.983          59.643          55.581          59.634
  7700           5.990           0.962           8.072           3.988          59.720          55.658          59.711
  7710           5.990           0.962           8.072           3.993          59.797          55.736          59.788
  7720           5.990           0.962           8.072           3.998          59.874          55.813          59.866
  7730           5.990           0.962           8.072           4.003          59.952          55.890          59.943
  7740           5.990           0.962           8.072           4.009          60.029          55.967          60.020
  7750           5.990           0.962           8.072           4.014          60.106          56.045          60.098
  7760           5.990           0.962           8.072           4.019          60.184          56.122          60.175
  7770           5.990           0.962           8.072           4.024          60.261          56.199          60.252
  7780           5.990           0.962           8.072           4.029          60.338          56.277          60.329
  7790           5.990           0.962           8.072           4.034          60.415          56.354          60.407
  7800           5.990           0.962           8.072           4.040          60.493          56.431          60.484
  7810           5.990           0.962           8.072           4.045          60.570          56.508          60.561
  7820           5.990           0.962           8.072           4.050          60.647          56.586          60.639
  7830           5.990           0.962           8.072           4.055          60.725          56.663          60.716
  7840           5.990           0.962           8.072           4.060          60.802          56.740          60.793
  7850           5.990           0.962           8.072           4.065          60.879          56.818          60.871
  7860           5.990           0.962           8.072           4.070          60.957          56.895          60.948
  7870           5.990           0.962           8.072           4.076          61.034          56.972          61.025
  7880           5.990           0.962           8.072           4.081          61.111          57.050          61.102
  7890           5.990           0.962           8.072           4.086          61.188          57.127          61.180
  7900           5.990           0.962           8.072           4.091          61.266          57.204          61.257
  7910           5.990           0.962           8.072           4.096          61.343          57.281          61.334
  7920           5.991           0.962           8.072           4.101          61.420          57.359          61.412
  7930           5.991           0.962           8.072           4.107          61.498          57.436          61.489
  7940           5.991           0.962           8.072           4.112          61.575          57.513          61.566
  7950           5.991           0.962           8.072           4.117          61.652          57.591          61.644
  7960           5.991           0.962           8.072           4.122          61.729          57.668          61.721
  7970           5.991           0.962           8.072           4.127          61.807          57.745          61.798
  7980           5.991           0.962           8.073           4.132          61.884          57.822          61.876
  7990           5.991           0.962           8.073           4.138          61.961          57.900          61.953
  8000           5.991           0.962           8.073           4.143          62.039          57.977          62.030
  8010           5.991           0.962           8.073           4.148          62.116          58.054          62.107
  8020           5.991           0.962           8.073           4.153          62.193          58.132          62.185
  8030           5.991           0.962           8.073           4.158          62.271          58.209          62.262
  8040           5.991           0.962           8.073           4.163          62.348          58.286          62.339
  8050           5.991           0.962           8.073           4.169          62.425          58.364          62.417
  8060           5.991           0.962           8.073           4.174          62.502          58.441          62.494
  8070           5.991           0.962           8.073           4.179          62.580          58.518          62.571
  8080           5.991           0.962           8.073           4.184          62.657          58.595          62.649
  8090           5.991           0.962           8.073           4.189          62.734          58.673          62.726
  8100           5.991           0.962           8.073           4.194          62.812          58.750          62.803
  8110           5.991           0.962           8.073           4.200          62.889          58.827          62.881
  8120           5.991           0.962           8.073           4.205          62.966          58.905          62.958
  8130           5.991           0.962           8.073           4.210          63.044          58.982          63.035
  8140           5.991           0.962           8.073           4.215          63.121          59.059          63.113
  8150           5.991           0.962           8.073           4.220          63.198          59.137          63.190
  8160           5.991           0.962           8.073           4.225          63.275          59.214          63.267
  8170           5.991           0.962           8.073           4.231          63.353          59.291          63.344
  8180           5.991           0.962           8.073           4.236          63.430          59.368          63.422
  8190           5.991           0.962           8.073           4.241          63.507          59.446          63.499
  8200           5.991           0.962           8.073           4.246          63.585          59.523          63.576
  8210           5.991           0.962           8.073           4.251          63.662          59.600          63.654
  8220           5.991           0.962           8.073           4.256          63.739          59.678          63.731
  8230           5.991           0.962           8.073           4.261          63.817          59.755          63.808
  8240           5.991           0.962           8.073           4.267          63.894          59.832          63.886
  8250           5.991           0.962           8.073           4.272          63.971          59.910          63.963
  8260           5.991           0.962           8.073           4.277          64.048          59.987          64.040
  8270           5.991           0.962           8.073           4.282          64.126          60.064          64.118
  8280           5.991           0.962           8.073           4.287          64.203          60.142          64.195
  8290           5.991           0.962           8.073           4.292          64.280          60.219          64.272
  8300           5.991           0.962           8.074           4.298          64.358          60.296          64.350
  8310           5.991           0.962           8.074           4.303          64.435          60.373          64.427
  8320           5.991           0.962           8.074           4.308          64.512          60.451          64.504
  8330           5.991           0.962           8.074           4.313          64.590          60.528          64.581
  8340           5.991           0.962           8.074           4.318          64.667          60.605          64.659
  8350           5.991           0.962           8.074           4.323          64.744          60.683          64.736
  8360           5.991           0.962           8.074           4.329          64.822          60.760          64.813
  8370           5.991           0.962           8.074           4.334          64.899          60.837          64.891
  8380           5.992           0.962           8.074           4.339          64.976          60.915          64.968
  8390           5.992           0.962           8.074           4.344          65.053          60.992          65.045
  8400           5.992           0.962           8.074           4.349          65.131          61.069          65.123
  8410           5.992           0.962           8.074           4.354          65.208          61.147          65.200
  8420           5.992           0.962           8.074           4.360          65.285          61.224          65.277
  8430           5.992           0.962           8.074           4.365          65.363          61.301          65.355
  8440           5.992           0.962           8.074           4.370          65.440          61.378          65.432
  8450           5.992           0.962           8.074           4.375          65.517          61.456          65.509
  8460           5.992           0.962           8.074           4.380          65.595          61.533          65.587
  8470           5.992           0.962           8.074           4.385          65.672          61.610          65.664
  8480           5.992           0.962           8.074           4.391          65.749          61.688          65.741
  8490           5.992           0.962           8.074           4.396          65.827          61.765          65.819
  8500           5.992           0.962           8.074           4.401          65.904          61.842          65.896
  8510           5.992           0.962           8.074           4.406          65.981          61.920          65.973
  8520           5.992           0.962           8.074           4.411          66.059          61.997          66.051
  8530           5.992           0.962           8.074           4.416          66.136          62.074          66.128
  8540           5.992           0.962           8.074           4.422          66.213          62.152          66.205
  8550           5.992           0.962           8.074           4.427          66.290          62.229          66.283
  8560           5.992           0.962           8.074           4.432          66.368          62.306          66.360
  8570           5.992           0.962           8.074           4.437          66.445          62.383          66.437
  8580           5.992           0.962           8.074           4.442          66.522          62.461          66.514
  8590           5.992           0.962           8.074           4.447          66.600          62.538          66.592
  8600           5.992           0.962           8.074           4.453          66.677          62.615          66.669
  8610           5.992           0.962           8.074           4.458          66.754          62.693          66.746
  8620           5.992           0.962           8.074           4.463          66.832          62.770          66.824
  8630           5.992           0.962           8.074           4.468          66.909          62.847          66.901
  8640           5.992           0.962           8.074           4.473          66.986          62.925          66.978
  8650           5.992           0.962           8.074           4.478          67.064          63.002          67.056
  8660           5.992           0.962           8.074           4.484          67.141          63.079          67.133
  8670           5.992           0.962           8.075           4.489          67.218          63.157          67.210
  8680           5.992           0.962           8.075           4.494          67.296          63.234          67.288
  8690           5.992           0.962           8.075           4.499          67.373          63.311          67.365
  8700           5.992           0.962           8.075           4.504          67.450          63.389          67.442
  8710           5.992           0.962           8.075           4.509          67.527          63.466          67.520
  8720           5.992           0.962           8.075           4.514          67.605          63.543          67.597
  8730           5.992           0.962           8.075           4.520          67.682          63.621          67.674
  8740           5.992           0.962           8.075           4.525          67.759          63.698          67.752
  8750           5.992           0.962           8.075           4.530          67.837          63.775          67.829
  8760           5.992           0.962           8.075           4.535          67.914          63.852          67.906
  8770           5.992           0.962           8.075           4.540          67.991          63.930          67.984
  8780           5.992           0.962           8.075           4.545          68.069          64.007          68.061
  8790           5.992           0.962           8.075           4.551          68.146          64.084          68.138
  8800           5.992           0.962           8.075           4.556          68.223          64.162          68.216
  8810           5.992           0.962           8.075           4.561          68.301          64.239          68.293
  8820           5.992           0.962           8.075           4.566          68.378          64.316          68.370
  8830           5.992           0.962           8.075           4.571          68.455          64.394          68.448
  8840           5.992           0.962           8.075           4.576          68.533          64.471          68.525
  8850           5.992           0.962           8.075           4.582          68.610          64.548          68.602
  8860           5.992           0.962           8.075           4.587          68.687          64.626          68.680
  8870           5.992           0.962           8.075           4.592          68.765          64.703          68.757
  8880           5.992           0.962           8.075           4.597          68.842          64.780          68.834
  8890           5.992           0.962           8.075           4.602          68.919          64.858          68.912
  8900           5.992           0.962           8.075           4.607          68.997          64.935          68.989
  8910           5.992           0.962           8.075           4.613          69.074          65.012          69.066
  8920           5.993           0.962           8.075           4.618          69.151          65.090          69.144
  8930           5.993           0.962           8.075           4.623          69.229          65.167          69.221
  8940           5.993           0.962           8.075           4.628          69.306          65.244          69.298
  8950           5.993           0.962           8.075           4.633          69.383          65.322          69.376
  8960           5.993           0.962           8.075           4.638          69.460          65.399          69.453
  8970           5.993           0.962           8.075           4.644          69.538          65.476          69.530
  8980           5.993           0.962           8.075           4.649          69.615          65.554          69.608
  8990           5.993           0.962           8.075           4.654          69.692          65.631          69.685
  9000           5.993           0.962           8.075           4.659          69.770          65.708          69.762
  9010           5.993           0.962           8.075           4.664          69.847          65.786          69.840
  9020           5.993           0.962           8.075           4.669          69.924          65.863          69.917
  9030           5.993           0.962           8.075           4.675          70.002          65.940          69.994
  9040           5.993           0.962           8.075           4.680          70.079          66.017          70.072
  9050           5.993           0.962           8.075           4.685          70.156          66.095          70.149
  9060           5.993           0.962           8.075           4.690          70.234          66.172          70.226
  9070           5.993           0.962           8.075           4.695          70.311          66.249          70.304
  9080           5.993           0.962           8.076           4.700          70.388          66.327          70.381
  9090           5.993           0.962           8.076           4.706          70.466          66.404          70.458
  9100           5.993           0.962           8.076           4.711          70.543          66.481          70.536
  9110           5.993           0.962           8.076           4.716          70.620          66.559          70.613
  9120           5.993           0.962           8.076           4.721          70.698          66.636          70.690
  9130           5.993           0.962           8.076           4.726          70.775          66.713          70.768
  9140           5.993           0.962           8.076           4.731          70.852          66.791          70.845
  9150           5.993           0.962           8.076           4.737          70.930          66.868          70.922
  9160           5.993           0.962           8.076           4.742          71.007          66.945          71.000
  9170           5.993           0.962           8.076           4.747          71.084          67.023          71.077
  9180           5.993           0.962           8.076           4.752          71.162          67.100          71.154
  9190           5.993           0.962           8.076           4.757          71.239          67.177          71.232
  9200           5.993           0.962           8.076           4.762          71.316          67.255          71.309
  9210           5.993           0.962           8.076           4.768          71.394          67.332          71.386
  9220           5.993           0.962           8.076           4.773          71.471          67.409          71.464
  9230           5.993           0.962           8.076           4.778          71.548          67.487          71.541
  9240           5.993           0.962           8.076           4.783          71.626          67.564          71.618
  9250           5.993           0.962           8.076           4.788          71.703          67.641          71.696
  9260           5.993           0.962           8.076           4.793          71.780          67.719          71.773
  9270           5.993           0.962           8.076           4.799          71.858          67.796          71.850
  9280           5.993           0.962           8.076           4.804          71.935          67.873          71.928
  9290           5.993           0.962           8.076           4.809          72.012          67.951          72.005
  9300           5.993           0.962           8.076           4.814          72.090          68.028          72.082
  9310           5.993           0.962           8.076           4.819          72.167          68.105          72.160
  9320           5.993           0.962           8.076           4.824          72.244          68.183          72.237
  9330           5.993           0.962           8.076           4.829          72.322          68.260          72.314
  9340           5.993           0.962           8.076           4.835          72.399          68.337          72.392
  9350           5.993           0.962           8.076           4.840          72.476          68.415          72.469
  9360           5.993           0.962           8.076           4.845          72.554          68.492          72.546
  9370           5.993           0.962           8.076           4.850          72.631          68.569          72.624
  9380           5.993           0.962           8.076           4.855          72.708          68.647          72.701
  9390           5.993           0.962           8.076           4.860          72.786          68.724          72.778
  9400           5.993           0.962           8.076           4.866          72.863          68.801          72.856
  9410           5.993           0.962           8.076           4.871          72.940          68.879          72.933
  9420           5.993           0.962           8.076           4.876          73.018          68.956          73.010
  9430           5.993           0.962           8.076           4.881          73.095          69.033          73.088
  9440           5.993           0.962           8.076           4.886          73.172          69.111          73.165
  9450           5.993           0.962           8.076           4.891          73.250          69.188          73.242
  9460           5.993           0.962           8.076           4.897          73.327          69.265          73.320
  9470           5.993           0.962           8.076           4.902          73.404          69.343          73.397
  9480           5.993           0.962           8.076           4.907          73.482          69.420          73.474
  9490           5.993           0.962           8.076           4.912          73.559          69.497          73.552
  9500           5.993           0.962           8.076           4.917          73.636          69.575          73.629
  9510           5.993           0.962           8.076           4.922          73.714          69.652          73.706
  9520           5.993           0.962           8.076           4.928          73.791          69.729          73.784
  9530           5.993           0.962           8.076           4.933          73.868          69.807          73.861
  9540           5.993           0.962           8.076           4.938          73.946          69.884          73.938
  9550           5.993           0.962           8.076           4.943          74.023          69.961          74.016
  9560           5.993           0.962           8.077           4.948          74.100          70.039          74.093
  9570           5.993           0.962           8.077           4.953          74.178          70.116          74.170
  9580           5.994           0.962           8.077           4.959          74.255          70.193          74.248
  9590           5.994           0.962           8.077           4.964          74.332          70.271          74.325
  9600           5.994           0.962           8.077           4.969          74.410          70.348          74.403
  9610           5.994           0.962           8.077           4.974          74.487          70.425          74.480
  9620           5.994           0.962           8.077           4.979          74.564          70.503          74.557
  9630           5.994           0.962           8.077           4.984          74.642          70.580          74.635
  9640           5.994           0.962           8.077           4.990          74.719          70.657          74.712
  9650           5.994           0.962           8.077           4.995          74.796          70.735          74.789
  9660           5.994           0.962           8.077           5.000          74.874          70.812          74.867
  9670           5.994           0.962           8.077           5.005          74.951          70.889          74.944
  9680           5.994           0.962           8.077           5.010          75.028          70.967          75.021
  9690           5.994           0.962           8.077           5.015          75.106          71.044          75.099
  9700           5.994           0.962           8.077           5.021          75.183          71.121          75.176
  9710           5.994           0.962           8.077           5.026          75.260          71.199          75.253
  9720           5.994           0.962           8.077           5.031          75.338          71.276          75.331
  9730           5.994           0.962           8.077           5.036          75.415          71.353          75.408
  9740           5.994           0.962           8.077           5.041          75.492          71.431          75.485
  9750           5.994           0.962           8.077           5.046          75.570          71.508          75.563
  9760           5.994           0.962           8.077           5.052          75.647          71.585          75.640
  9770           5.994           0.962           8.077           5.057          75.724          71.663          75.717
  9780           5.994           0.962           8.077           5.062          75.802          71.740          75.795
  9790           5.994           0.962           8.077           5.067          75.879          71.817          75.872
  9800           5.994           0.962           8.077           5.072          75.956          71.895          75.949
  9810           5.994           0.962           8.077           5.077          76.034          71.972          76.027
  9820           5.994           0.962           8.077           5.083          76.111          72.049          76.104
  9830           5.994           0.962           8.077           5.088          76.188          72.127          76.181
  9840           5.994           0.962           8.077           5.093          76.266          72.204          76.259
  9850           5.994           0.962           8.077           5.098          76.343          72.281          76.336
  9860           5.994           0.962           8.077           5.103          76.420          72.359          76.413
  9870           5.994           0.962           8.077           5.108          76.498          72.436          76.491
  9880           5.994           0.962           8.077           5.114          76.575          72.513          76.568
  9890           5.994           0.962           8.077           5.119          76.652          72.591          76.646
  9900           5.994           0.962           8.077           5.124          76.730          72.668          76.723
  9910           5.994           0.962           8.077           5.129          76.807          72.745          76.800
  9920           5.994           0.962           8.077           5.134          76.884          72.823          76.878
  9930           5.994           0.962           8.077           5.139          76.962          72.900          76.955
  9940           5.994           0.962           8.077           5.145          77.039          72.978          77.032
  9950           5.994           0.962           8.077           5.150          77.116          73.055          77.110
  9960           5.994           0.962           8.077           5.155          77.194          73.132          77.187
  9970           5.994           0.962           8.077           5.160          77.271          73.210          77.264
  9980           5.994           0.962           8.077           5.165          77.348          73.284          77.342
  9990           5.994           0.962           8.077           5.170          77.426          73.374          77.419
 10000           5.994           0.962           8.077           5.176          77.503          73.403          77.496
