#   T(K)    C_v(k_B/fu)        Gamma     alpha_v*10^6(K^-1)   E_th(eV)                       P_th_(GPa)
#                                                                         ----------------------------------------------
#                                                                          {sum G_i.U_iV}  {int G.C_v/V dT}    {G.U/V}
# ---------------------------------------------------------------------------------------------------------------------------------------------------
    10           0.008           0.195           0.002           0.170           0.591           0.000           0.133
    20           0.140           0.420           0.079           0.171           0.591           0.000           0.286
    30           0.459           0.535           0.330           0.171           0.591           0.001           0.365
    40           0.860           0.593           0.686           0.171           0.592           0.003           0.406
    50           1.267           0.643           1.095           0.172           0.595           0.006           0.442
    60           1.662           0.694           1.549           0.174           0.598           0.010           0.480
    70           2.046           0.743           2.040           0.175           0.603           0.015           0.519
    80           2.424           0.785           2.557           0.177           0.608           0.021           0.555
    90           2.798           0.820           3.083           0.179           0.616           0.029           0.587
   100           3.166           0.848           3.603           0.182           0.624           0.038           0.615
   110           3.524           0.868           4.108           0.185           0.634           0.049           0.640
   120           3.871           0.883           4.588           0.188           0.645           0.061           0.662
   130           4.202           0.893           5.040           0.191           0.658           0.074           0.682
   140           4.516           0.900           5.461           0.195           0.671           0.088           0.701
   150           4.812           0.905           5.850           0.199           0.686           0.103           0.720
   160           5.088           0.909           6.209           0.203           0.701           0.118           0.738
   170           5.346           0.911           6.538           0.208           0.717           0.135           0.756
   180           5.585           0.912           6.839           0.213           0.734           0.153           0.774
   190           5.807           0.912           7.114           0.218           0.752           0.171           0.792
   200           6.011           0.912           7.365           0.223           0.771           0.190           0.811
   210           6.200           0.912           7.595           0.228           0.790           0.209           0.830
   220           6.374           0.912           7.805           0.233           0.810           0.229           0.849
   230           6.535           0.911           7.997           0.239           0.830           0.250           0.869
   240           6.683           0.911           8.172           0.245           0.851           0.271           0.889
   250           6.820           0.910           8.333           0.250           0.872           0.292           0.909
   260           6.946           0.909           8.481           0.256           0.893           0.314           0.930
   270           7.063           0.908           8.617           0.262           0.915           0.336           0.951
   280           7.170           0.908           8.741           0.269           0.937           0.358           0.973
   290           7.270           0.907           8.856           0.275           0.960           0.381           0.994
   300           7.363           0.906           8.962           0.281           0.983           0.404           1.016
   310           7.449           0.906           9.060           0.287           1.006           0.427           1.039
   320           7.528           0.905           9.151           0.294           1.029           0.450           1.061
   330           7.602           0.905           9.235           0.300           1.053           0.474           1.084
   340           7.671           0.904           9.313           0.307           1.076           0.498           1.107
   350           7.735           0.903           9.385           0.314           1.100           0.522           1.131
   360           7.795           0.903           9.453           0.320           1.124           0.546           1.154
   370           7.851           0.902           9.515           0.327           1.149           0.570           1.178
   380           7.904           0.902           9.574           0.334           1.173           0.595           1.202
   390           7.953           0.902           9.629           0.341           1.198           0.620           1.225
   400           7.999           0.901           9.680           0.348           1.222           0.644           1.250
   410           8.042           0.901           9.728           0.354           1.247           0.669           1.274
   420           8.082           0.900           9.773           0.361           1.272           0.694           1.298
   430           8.120           0.900           9.815           0.368           1.297           0.719           1.323
   440           8.156           0.900           9.854           0.375           1.323           0.745           1.348
   450           8.190           0.899           9.892           0.382           1.348           0.770           1.372
   460           8.222           0.899           9.927           0.390           1.373           0.795           1.397
   470           8.252           0.899           9.960           0.397           1.399           0.821           1.422
   480           8.280           0.898           9.991           0.404           1.424           0.846           1.447
   490           8.307           0.898          10.021           0.411           1.450           0.872           1.473
   500           8.332           0.898          10.048           0.418           1.476           0.898           1.498
   510           8.356           0.898          10.075           0.425           1.501           0.924           1.523
   520           8.379           0.898          10.100           0.432           1.527           0.950           1.549
   530           8.401           0.897          10.124           0.440           1.553           0.975           1.574
   540           8.421           0.897          10.146           0.447           1.579           1.001           1.600
   550           8.441           0.897          10.167           0.454           1.605           1.027           1.625
   560           8.460           0.897          10.188           0.461           1.631           1.054           1.651
   570           8.477           0.897          10.207           0.469           1.657           1.080           1.677
   580           8.494           0.896          10.226           0.476           1.683           1.106           1.703
   590           8.510           0.896          10.243           0.483           1.709           1.132           1.729
   600           8.526           0.896          10.260           0.491           1.736           1.158           1.755
   610           8.540           0.896          10.276           0.498           1.762           1.185           1.781
   620           8.554           0.896          10.291           0.505           1.788           1.211           1.807
   630           8.568           0.896          10.305           0.513           1.815           1.237           1.833
   640           8.580           0.896          10.319           0.520           1.841           1.264           1.859
   650           8.593           0.895          10.333           0.528           1.868           1.290           1.885
   660           8.604           0.895          10.345           0.535           1.894           1.317           1.911
   670           8.615           0.895          10.358           0.542           1.921           1.343           1.938
   680           8.626           0.895          10.369           0.550           1.947           1.370           1.964
   690           8.637           0.895          10.380           0.557           1.974           1.396           1.990
   700           8.646           0.895          10.391           0.565           2.000           1.423           2.017
   710           8.656           0.895          10.401           0.572           2.027           1.450           2.043
   720           8.665           0.895          10.411           0.580           2.053           1.476           2.069
   730           8.674           0.895          10.421           0.587           2.080           1.503           2.096
   740           8.682           0.894          10.430           0.595           2.107           1.530           2.122
   750           8.690           0.894          10.439           0.602           2.134           1.556           2.149
   760           8.698           0.894          10.447           0.610           2.160           1.583           2.175
   770           8.706           0.894          10.455           0.617           2.187           1.610           2.202
   780           8.713           0.894          10.463           0.625           2.214           1.637           2.229
   790           8.720           0.894          10.471           0.632           2.241           1.663           2.255
   800           8.727           0.894          10.478           0.640           2.267           1.690           2.282
   810           8.733           0.894          10.485           0.647           2.294           1.717           2.309
   820           8.740           0.894          10.492           0.655           2.321           1.744           2.335
   830           8.746           0.894          10.498           0.662           2.348           1.771           2.362
   840           8.752           0.894          10.505           0.670           2.375           1.798           2.389
   850           8.757           0.894          10.511           0.677           2.402           1.825           2.415
   860           8.763           0.894          10.517           0.685           2.429           1.852           2.442
   870           8.768           0.894          10.522           0.692           2.456           1.879           2.469
   880           8.773           0.894          10.528           0.700           2.483           1.906           2.496
   890           8.778           0.894          10.533           0.708           2.510           1.932           2.523
   900           8.783           0.893          10.538           0.715           2.536           1.959           2.549
   910           8.787           0.893          10.543           0.723           2.563           1.986           2.576
   920           8.792           0.893          10.548           0.730           2.590           2.013           2.603
   930           8.796           0.893          10.553           0.738           2.617           2.040           2.630
   940           8.800           0.893          10.558           0.745           2.645           2.068           2.657
   950           8.805           0.893          10.562           0.753           2.672           2.095           2.684
   960           8.809           0.893          10.566           0.761           2.699           2.122           2.711
   970           8.812           0.893          10.570           0.768           2.726           2.149           2.738
   980           8.816           0.893          10.574           0.776           2.753           2.176           2.765
   990           8.820           0.893          10.578           0.783           2.780           2.203           2.792
  1000           8.823           0.893          10.582           0.791           2.807           2.230           2.819
  1010           8.827           0.893          10.586           0.799           2.834           2.257           2.846
  1020           8.830           0.893          10.589           0.806           2.861           2.284           2.873
  1030           8.833           0.893          10.593           0.814           2.888           2.311           2.900
  1040           8.836           0.893          10.596           0.821           2.915           2.338           2.927
  1050           8.839           0.893          10.599           0.829           2.942           2.366           2.954
  1060           8.842           0.893          10.603           0.837           2.970           2.393           2.981
  1070           8.845           0.893          10.606           0.844           2.997           2.420           3.008
  1080           8.848           0.893          10.609           0.852           3.024           2.447           3.035
  1090           8.851           0.893          10.612           0.860           3.051           2.474           3.062
  1100           8.853           0.893          10.615           0.867           3.078           2.501           3.089
  1110           8.856           0.893          10.617           0.875           3.105           2.529           3.116
  1120           8.859           0.893          10.620           0.882           3.133           2.556           3.143
  1130           8.861           0.893          10.623           0.890           3.160           2.583           3.170
  1140           8.863           0.893          10.625           0.898           3.187           2.610           3.197
  1150           8.866           0.893          10.628           0.905           3.214           2.637           3.224
  1160           8.868           0.893          10.630           0.913           3.241           2.665           3.252
  1170           8.870           0.893          10.633           0.921           3.269           2.692           3.279
  1180           8.872           0.893          10.635           0.928           3.296           2.719           3.306
  1190           8.874           0.893          10.637           0.936           3.323           2.746           3.333
  1200           8.877           0.892          10.639           0.944           3.350           2.773           3.360
  1210           8.879           0.892          10.642           0.951           3.378           2.801           3.387
  1220           8.880           0.892          10.644           0.959           3.405           2.828           3.414
  1230           8.882           0.892          10.646           0.967           3.432           2.855           3.442
  1240           8.884           0.892          10.648           0.974           3.459           2.882           3.469
  1250           8.886           0.892          10.650           0.982           3.487           2.910           3.496
  1260           8.888           0.892          10.652           0.989           3.514           2.937           3.523
  1270           8.890           0.892          10.653           0.997           3.541           2.964           3.550
  1280           8.891           0.892          10.655           1.005           3.568           2.992           3.578
  1290           8.893           0.892          10.657           1.012           3.596           3.019           3.605
  1300           8.895           0.892          10.659           1.020           3.623           3.046           3.632
  1310           8.896           0.892          10.660           1.028           3.650           3.073           3.659
  1320           8.898           0.892          10.662           1.035           3.678           3.101           3.686
  1330           8.899           0.892          10.664           1.043           3.705           3.128           3.714
  1340           8.901           0.892          10.665           1.051           3.732           3.155           3.741
  1350           8.902           0.892          10.667           1.058           3.759           3.183           3.768
  1360           8.904           0.892          10.668           1.066           3.787           3.210           3.795
  1370           8.905           0.892          10.670           1.074           3.814           3.237           3.823
  1380           8.906           0.892          10.671           1.081           3.841           3.265           3.850
  1390           8.908           0.892          10.673           1.089           3.869           3.292           3.877
  1400           8.909           0.892          10.674           1.097           3.896           3.319           3.904
  1410           8.910           0.892          10.676           1.105           3.923           3.347           3.932
  1420           8.911           0.892          10.677           1.112           3.951           3.374           3.959
  1430           8.913           0.892          10.678           1.120           3.978           3.401           3.986
  1440           8.914           0.892          10.679           1.128           4.005           3.429           4.014
  1450           8.915           0.892          10.681           1.135           4.033           3.456           4.041
  1460           8.916           0.892          10.682           1.143           4.060           3.483           4.068
  1470           8.917           0.892          10.683           1.151           4.087           3.511           4.095
  1480           8.918           0.892          10.684           1.158           4.115           3.538           4.123
  1490           8.920           0.892          10.686           1.166           4.142           3.565           4.150
  1500           8.921           0.892          10.687           1.174           4.170           3.593           4.177
  1510           8.922           0.892          10.688           1.181           4.197           3.620           4.205
  1520           8.923           0.892          10.689           1.189           4.224           3.647           4.232
  1530           8.924           0.892          10.690           1.197           4.252           3.675           4.259
  1540           8.925           0.892          10.691           1.204           4.279           3.702           4.287
  1550           8.926           0.892          10.692           1.212           4.306           3.730           4.314
  1560           8.927           0.892          10.693           1.220           4.334           3.757           4.341
  1570           8.927           0.892          10.694           1.227           4.361           3.784           4.369
  1580           8.928           0.892          10.695           1.235           4.389           3.812           4.396
  1590           8.929           0.892          10.696           1.243           4.416           3.839           4.423
  1600           8.930           0.892          10.697           1.251           4.443           3.866           4.451
  1610           8.931           0.892          10.698           1.258           4.471           3.894           4.478
  1620           8.932           0.892          10.699           1.266           4.498           3.921           4.505
  1630           8.933           0.892          10.700           1.274           4.525           3.949           4.533
  1640           8.933           0.892          10.700           1.281           4.553           3.976           4.560
  1650           8.934           0.892          10.701           1.289           4.580           4.003           4.587
  1660           8.935           0.892          10.702           1.297           4.608           4.031           4.615
  1670           8.936           0.892          10.703           1.304           4.635           4.058           4.642
  1680           8.937           0.892          10.704           1.312           4.662           4.086           4.669
  1690           8.937           0.892          10.705           1.320           4.690           4.113           4.697
  1700           8.938           0.892          10.705           1.328           4.717           4.140           4.724
  1710           8.939           0.892          10.706           1.335           4.745           4.168           4.752
  1720           8.939           0.892          10.707           1.343           4.772           4.195           4.779
  1730           8.940           0.892          10.708           1.351           4.799           4.223           4.806
  1740           8.941           0.892          10.708           1.358           4.827           4.250           4.834
  1750           8.942           0.892          10.709           1.366           4.854           4.278           4.861
  1760           8.942           0.892          10.710           1.374           4.882           4.305           4.888
  1770           8.943           0.892          10.710           1.382           4.909           4.332           4.916
  1780           8.943           0.892          10.711           1.389           4.937           4.360           4.943
  1790           8.944           0.892          10.712           1.397           4.964           4.387           4.971
  1800           8.945           0.892          10.713           1.405           4.991           4.415           4.998
  1810           8.945           0.892          10.713           1.412           5.019           4.442           5.025
  1820           8.946           0.892          10.714           1.420           5.046           4.469           5.053
  1830           8.946           0.892          10.714           1.428           5.074           4.497           5.080
  1840           8.947           0.892          10.715           1.435           5.101           4.524           5.108
  1850           8.948           0.892          10.716           1.443           5.129           4.552           5.135
  1860           8.948           0.892          10.716           1.451           5.156           4.579           5.162
  1870           8.949           0.892          10.717           1.459           5.183           4.607           5.190
  1880           8.949           0.892          10.717           1.466           5.211           4.634           5.217
  1890           8.950           0.892          10.718           1.474           5.238           4.662           5.245
  1900           8.950           0.892          10.719           1.482           5.266           4.689           5.272
  1910           8.951           0.892          10.719           1.489           5.293           4.716           5.299
  1920           8.951           0.892          10.720           1.497           5.321           4.744           5.327
  1930           8.952           0.892          10.720           1.505           5.348           4.771           5.354
  1940           8.952           0.892          10.721           1.513           5.376           4.799           5.382
  1950           8.953           0.892          10.721           1.520           5.403           4.826           5.409
  1960           8.953           0.892          10.722           1.528           5.430           4.854           5.436
  1970           8.954           0.892          10.722           1.536           5.458           4.881           5.464
  1980           8.954           0.892          10.723           1.543           5.485           4.909           5.491
  1990           8.955           0.892          10.723           1.551           5.513           4.936           5.519
  2000           8.955           0.892          10.724           1.559           5.540           4.963           5.546
  2010           8.956           0.892          10.724           1.567           5.568           4.991           5.574
  2020           8.956           0.892          10.725           1.574           5.595           5.018           5.601
  2030           8.956           0.892          10.725           1.582           5.623           5.046           5.628
  2040           8.957           0.892          10.726           1.590           5.650           5.073           5.656
  2050           8.957           0.892          10.726           1.597           5.678           5.101           5.683
  2060           8.958           0.892          10.726           1.605           5.705           5.128           5.711
  2070           8.958           0.892          10.727           1.613           5.732           5.156           5.738
  2080           8.959           0.892          10.727           1.621           5.760           5.183           5.766
  2090           8.959           0.892          10.728           1.628           5.787           5.211           5.793
  2100           8.959           0.892          10.728           1.636           5.815           5.238           5.820
  2110           8.960           0.892          10.729           1.644           5.842           5.266           5.848
  2120           8.960           0.892          10.729           1.652           5.870           5.293           5.875
  2130           8.960           0.892          10.729           1.659           5.897           5.320           5.903
  2140           8.961           0.892          10.730           1.667           5.925           5.348           5.930
  2150           8.961           0.892          10.730           1.675           5.952           5.375           5.958
  2160           8.962           0.892          10.731           1.682           5.980           5.403           5.985
  2170           8.962           0.892          10.731           1.690           6.007           5.430           6.013
  2180           8.962           0.892          10.731           1.698           6.035           5.458           6.040
  2190           8.963           0.892          10.732           1.706           6.062           5.485           6.067
  2200           8.963           0.892          10.732           1.713           6.090           5.513           6.095
  2210           8.963           0.892          10.732           1.721           6.117           5.540           6.122
  2220           8.964           0.892          10.733           1.729           6.145           5.568           6.150
  2230           8.964           0.892          10.733           1.736           6.172           5.595           6.177
  2240           8.964           0.892          10.733           1.744           6.200           5.623           6.205
  2250           8.965           0.892          10.734           1.752           6.227           5.650           6.232
  2260           8.965           0.892          10.734           1.760           6.254           5.678           6.260
  2270           8.965           0.892          10.734           1.767           6.282           5.705           6.287
  2280           8.965           0.892          10.735           1.775           6.309           5.733           6.315
  2290           8.966           0.892          10.735           1.783           6.337           5.760           6.342
  2300           8.966           0.892          10.735           1.791           6.364           5.788           6.370
  2310           8.966           0.892          10.736           1.798           6.392           5.815           6.397
  2320           8.967           0.892          10.736           1.806           6.419           5.843           6.424
  2330           8.967           0.892          10.736           1.814           6.447           5.870           6.452
  2340           8.967           0.892          10.737           1.821           6.474           5.898           6.479
  2350           8.967           0.892          10.737           1.829           6.502           5.925           6.507
  2360           8.968           0.892          10.737           1.837           6.529           5.953           6.534
  2370           8.968           0.892          10.737           1.845           6.557           5.980           6.562
  2380           8.968           0.892          10.738           1.852           6.584           6.008           6.589
  2390           8.969           0.892          10.738           1.860           6.612           6.035           6.617
  2400           8.969           0.892          10.738           1.868           6.639           6.063           6.644
  2410           8.969           0.892          10.739           1.876           6.667           6.090           6.672
  2420           8.969           0.892          10.739           1.883           6.694           6.118           6.699
  2430           8.970           0.892          10.739           1.891           6.722           6.145           6.727
  2440           8.970           0.892          10.739           1.899           6.749           6.172           6.754
  2450           8.970           0.892          10.740           1.906           6.777           6.200           6.782
  2460           8.970           0.892          10.740           1.914           6.804           6.227           6.809
  2470           8.971           0.892          10.740           1.922           6.832           6.255           6.837
  2480           8.971           0.892          10.740           1.930           6.859           6.282           6.864
  2490           8.971           0.891          10.741           1.937           6.887           6.310           6.891
  2500           8.971           0.891          10.741           1.945           6.914           6.337           6.919
  2510           8.971           0.891          10.741           1.953           6.942           6.365           6.946
  2520           8.972           0.891          10.741           1.961           6.969           6.392           6.974
  2530           8.972           0.891          10.742           1.968           6.997           6.420           7.001
  2540           8.972           0.891          10.742           1.976           7.024           6.447           7.029
  2550           8.972           0.891          10.742           1.984           7.052           6.475           7.056
  2560           8.973           0.891          10.742           1.991           7.079           6.502           7.084
  2570           8.973           0.891          10.743           1.999           7.107           6.530           7.111
  2580           8.973           0.891          10.743           2.007           7.134           6.558           7.139
  2590           8.973           0.891          10.743           2.015           7.162           6.585           7.166
  2600           8.973           0.891          10.743           2.022           7.189           6.613           7.194
  2610           8.974           0.891          10.743           2.030           7.217           6.640           7.221
  2620           8.974           0.891          10.744           2.038           7.244           6.668           7.249
  2630           8.974           0.891          10.744           2.046           7.272           6.695           7.276
  2640           8.974           0.891          10.744           2.053           7.299           6.723           7.304
  2650           8.974           0.891          10.744           2.061           7.327           6.750           7.331
  2660           8.975           0.891          10.745           2.069           7.354           6.778           7.359
  2670           8.975           0.891          10.745           2.077           7.382           6.805           7.386
  2680           8.975           0.891          10.745           2.084           7.409           6.833           7.414
  2690           8.975           0.891          10.745           2.092           7.437           6.860           7.441
  2700           8.975           0.891          10.745           2.100           7.464           6.888           7.469
  2710           8.976           0.891          10.746           2.107           7.492           6.915           7.496
  2720           8.976           0.891          10.746           2.115           7.519           6.943           7.524
  2730           8.976           0.891          10.746           2.123           7.547           6.970           7.551
  2740           8.976           0.891          10.746           2.131           7.574           6.998           7.579
  2750           8.976           0.891          10.746           2.138           7.602           7.025           7.606
  2760           8.976           0.891          10.746           2.146           7.629           7.053           7.634
  2770           8.977           0.891          10.747           2.154           7.657           7.080           7.661
  2780           8.977           0.891          10.747           2.162           7.684           7.108           7.689
  2790           8.977           0.891          10.747           2.169           7.712           7.135           7.716
  2800           8.977           0.891          10.747           2.177           7.739           7.163           7.744
  2810           8.977           0.891          10.747           2.185           7.767           7.190           7.771
  2820           8.977           0.891          10.748           2.193           7.795           7.218           7.799
  2830           8.978           0.891          10.748           2.200           7.822           7.245           7.826
  2840           8.978           0.891          10.748           2.208           7.850           7.273           7.854
  2850           8.978           0.891          10.748           2.216           7.877           7.300           7.881
  2860           8.978           0.891          10.748           2.224           7.905           7.328           7.909
  2870           8.978           0.891          10.748           2.231           7.932           7.355           7.936
  2880           8.978           0.891          10.748           2.239           7.960           7.383           7.964
  2890           8.978           0.891          10.749           2.247           7.987           7.410           7.991
  2900           8.979           0.891          10.749           2.254           8.015           7.438           8.019
  2910           8.979           0.891          10.749           2.262           8.042           7.465           8.046
  2920           8.979           0.891          10.749           2.270           8.070           7.493           8.074
  2930           8.979           0.891          10.749           2.278           8.097           7.520           8.101
  2940           8.979           0.891          10.749           2.285           8.125           7.548           8.129
  2950           8.979           0.891          10.750           2.293           8.152           7.576           8.156
  2960           8.979           0.891          10.750           2.301           8.180           7.603           8.184
  2970           8.980           0.891          10.750           2.309           8.207           7.631           8.211
  2980           8.980           0.891          10.750           2.316           8.235           7.658           8.239
  2990           8.980           0.891          10.750           2.324           8.262           7.686           8.266
  3000           8.980           0.891          10.750           2.332           8.290           7.713           8.294
  3010           8.980           0.891          10.750           2.340           8.317           7.741           8.321
  3020           8.980           0.891          10.751           2.347           8.345           7.768           8.349
  3030           8.980           0.891          10.751           2.355           8.372           7.796           8.376
  3040           8.981           0.891          10.751           2.363           8.400           7.823           8.404
  3050           8.981           0.891          10.751           2.371           8.427           7.851           8.431
  3060           8.981           0.891          10.751           2.378           8.455           7.878           8.459
  3070           8.981           0.891          10.751           2.386           8.483           7.906           8.486
  3080           8.981           0.891          10.751           2.394           8.510           7.933           8.514
  3090           8.981           0.891          10.752           2.402           8.538           7.961           8.541
  3100           8.981           0.891          10.752           2.409           8.565           7.988           8.569
  3110           8.981           0.891          10.752           2.417           8.593           8.016           8.596
  3120           8.982           0.891          10.752           2.425           8.620           8.043           8.624
  3130           8.982           0.891          10.752           2.432           8.648           8.071           8.651
  3140           8.982           0.891          10.752           2.440           8.675           8.098           8.679
  3150           8.982           0.891          10.752           2.448           8.703           8.126           8.707
  3160           8.982           0.891          10.752           2.456           8.730           8.154           8.734
  3170           8.982           0.891          10.753           2.463           8.758           8.181           8.762
  3180           8.982           0.891          10.753           2.471           8.785           8.209           8.789
  3190           8.982           0.891          10.753           2.479           8.813           8.236           8.817
  3200           8.982           0.891          10.753           2.487           8.840           8.264           8.844
  3210           8.983           0.891          10.753           2.494           8.868           8.291           8.872
  3220           8.983           0.891          10.753           2.502           8.895           8.319           8.899
  3230           8.983           0.891          10.753           2.510           8.923           8.346           8.927
  3240           8.983           0.891          10.753           2.518           8.951           8.374           8.954
  3250           8.983           0.891          10.753           2.525           8.978           8.401           8.982
  3260           8.983           0.891          10.754           2.533           9.006           8.429           9.009
  3270           8.983           0.891          10.754           2.541           9.033           8.456           9.037
  3280           8.983           0.891          10.754           2.549           9.061           8.484           9.064
  3290           8.983           0.891          10.754           2.556           9.088           8.511           9.092
  3300           8.983           0.891          10.754           2.564           9.116           8.539           9.119
  3310           8.984           0.891          10.754           2.572           9.143           8.567           9.147
  3320           8.984           0.891          10.754           2.580           9.171           8.594           9.174
  3330           8.984           0.891          10.754           2.587           9.198           8.622           9.202
  3340           8.984           0.891          10.754           2.595           9.226           8.649           9.229
  3350           8.984           0.891          10.755           2.603           9.253           8.677           9.257
  3360           8.984           0.891          10.755           2.611           9.281           8.704           9.284
  3370           8.984           0.891          10.755           2.618           9.308           8.732           9.312
  3380           8.984           0.891          10.755           2.626           9.336           8.759           9.339
  3390           8.984           0.891          10.755           2.634           9.364           8.787           9.367
  3400           8.984           0.891          10.755           2.641           9.391           8.814           9.395
  3410           8.985           0.891          10.755           2.649           9.419           8.842           9.422
  3420           8.985           0.891          10.755           2.657           9.446           8.869           9.450
  3430           8.985           0.891          10.755           2.665           9.474           8.897           9.477
  3440           8.985           0.891          10.755           2.672           9.501           8.924           9.505
  3450           8.985           0.891          10.756           2.680           9.529           8.952           9.532
  3460           8.985           0.891          10.756           2.688           9.556           8.980           9.560
  3470           8.985           0.891          10.756           2.696           9.584           9.007           9.587
  3480           8.985           0.891          10.756           2.703           9.611           9.035           9.615
  3490           8.985           0.891          10.756           2.711           9.639           9.062           9.642
  3500           8.985           0.891          10.756           2.719           9.666           9.090           9.670
  3510           8.985           0.891          10.756           2.727           9.694           9.117           9.697
  3520           8.985           0.891          10.756           2.734           9.722           9.145           9.725
  3530           8.986           0.891          10.756           2.742           9.749           9.172           9.752
  3540           8.986           0.891          10.756           2.750           9.777           9.200           9.780
  3550           8.986           0.891          10.756           2.758           9.804           9.227           9.807
  3560           8.986           0.891          10.757           2.765           9.832           9.255           9.835
  3570           8.986           0.891          10.757           2.773           9.859           9.282           9.863
  3580           8.986           0.891          10.757           2.781           9.887           9.310           9.890
  3590           8.986           0.891          10.757           2.789           9.914           9.338           9.918
  3600           8.986           0.891          10.757           2.796           9.942           9.365           9.945
  3610           8.986           0.891          10.757           2.804           9.969           9.393           9.973
  3620           8.986           0.891          10.757           2.812           9.997           9.420          10.000
  3630           8.986           0.891          10.757           2.820          10.024           9.448          10.028
  3640           8.986           0.891          10.757           2.827          10.052           9.475          10.055
  3650           8.986           0.891          10.757           2.835          10.080           9.503          10.083
  3660           8.987           0.891          10.757           2.843          10.107           9.530          10.110
  3670           8.987           0.891          10.757           2.851          10.135           9.558          10.138
  3680           8.987           0.891          10.757           2.858          10.162           9.585          10.165
  3690           8.987           0.891          10.758           2.866          10.190           9.613          10.193
  3700           8.987           0.891          10.758           2.874          10.217           9.640          10.220
  3710           8.987           0.891          10.758           2.882          10.245           9.668          10.248
  3720           8.987           0.891          10.758           2.889          10.272           9.696          10.275
  3730           8.987           0.891          10.758           2.897          10.300           9.723          10.303
  3740           8.987           0.891          10.758           2.905          10.327           9.751          10.331
  3750           8.987           0.891          10.758           2.912          10.355           9.778          10.358
  3760           8.987           0.891          10.758           2.920          10.382           9.806          10.386
  3770           8.987           0.891          10.758           2.928          10.410           9.833          10.413
  3780           8.987           0.891          10.758           2.936          10.438           9.861          10.441
  3790           8.987           0.891          10.758           2.943          10.465           9.888          10.468
  3800           8.988           0.891          10.758           2.951          10.493           9.916          10.496
  3810           8.988           0.891          10.758           2.959          10.520           9.943          10.523
  3820           8.988           0.891          10.758           2.967          10.548           9.971          10.551
  3830           8.988           0.891          10.759           2.974          10.575           9.999          10.578
  3840           8.988           0.891          10.759           2.982          10.603          10.026          10.606
  3850           8.988           0.891          10.759           2.990          10.630          10.054          10.633
  3860           8.988           0.891          10.759           2.998          10.658          10.081          10.661
  3870           8.988           0.891          10.759           3.005          10.685          10.109          10.689
  3880           8.988           0.891          10.759           3.013          10.713          10.136          10.716
  3890           8.988           0.891          10.759           3.021          10.741          10.164          10.744
  3900           8.988           0.891          10.759           3.029          10.768          10.191          10.771
  3910           8.988           0.891          10.759           3.036          10.796          10.219          10.799
  3920           8.988           0.891          10.759           3.044          10.823          10.246          10.826
  3930           8.988           0.891          10.759           3.052          10.851          10.274          10.854
  3940           8.988           0.891          10.759           3.060          10.878          10.302          10.881
  3950           8.988           0.891          10.759           3.067          10.906          10.329          10.909
  3960           8.989           0.891          10.759           3.075          10.933          10.357          10.936
  3970           8.989           0.891          10.759           3.083          10.961          10.384          10.964
  3980           8.989           0.891          10.760           3.091          10.988          10.412          10.991
  3990           8.989           0.891          10.760           3.098          11.016          10.439          11.019
  4000           8.989           0.891          10.760           3.106          11.044          10.467          11.047
  4010           8.989           0.891          10.760           3.114          11.071          10.494          11.074
  4020           8.989           0.891          10.760           3.122          11.099          10.522          11.102
  4030           8.989           0.891          10.760           3.129          11.126          10.549          11.129
  4040           8.989           0.891          10.760           3.137          11.154          10.577          11.157
  4050           8.989           0.891          10.760           3.145          11.181          10.605          11.184
  4060           8.989           0.891          10.760           3.153          11.209          10.632          11.212
  4070           8.989           0.891          10.760           3.160          11.236          10.660          11.239
  4080           8.989           0.891          10.760           3.168          11.264          10.687          11.267
  4090           8.989           0.891          10.760           3.176          11.292          10.715          11.294
  4100           8.989           0.891          10.760           3.184          11.319          10.742          11.322
  4110           8.989           0.891          10.760           3.191          11.347          10.770          11.349
  4120           8.989           0.891          10.760           3.199          11.374          10.797          11.377
  4130           8.989           0.891          10.760           3.207          11.402          10.825          11.405
  4140           8.989           0.891          10.760           3.215          11.429          10.853          11.432
  4150           8.990           0.891          10.761           3.222          11.457          10.880          11.460
  4160           8.990           0.891          10.761           3.230          11.484          10.908          11.487
  4170           8.990           0.891          10.761           3.238          11.512          10.935          11.515
  4180           8.990           0.891          10.761           3.246          11.539          10.963          11.542
  4190           8.990           0.891          10.761           3.253          11.567          10.990          11.570
  4200           8.990           0.891          10.761           3.261          11.595          11.018          11.597
  4210           8.990           0.891          10.761           3.269          11.622          11.045          11.625
  4220           8.990           0.891          10.761           3.277          11.650          11.073          11.652
  4230           8.990           0.891          10.761           3.284          11.677          11.100          11.680
  4240           8.990           0.891          10.761           3.292          11.705          11.128          11.708
  4250           8.990           0.891          10.761           3.300          11.732          11.156          11.735
  4260           8.990           0.891          10.761           3.308          11.760          11.183          11.763
  4270           8.990           0.891          10.761           3.315          11.787          11.211          11.790
  4280           8.990           0.891          10.761           3.323          11.815          11.238          11.818
  4290           8.990           0.891          10.761           3.331          11.843          11.266          11.845
  4300           8.990           0.891          10.761           3.339          11.870          11.293          11.873
  4310           8.990           0.891          10.761           3.346          11.898          11.321          11.900
  4320           8.990           0.891          10.761           3.354          11.925          11.348          11.928
  4330           8.990           0.891          10.761           3.362          11.953          11.376          11.955
  4340           8.990           0.891          10.761           3.370          11.980          11.404          11.983
  4350           8.990           0.891          10.762           3.377          12.008          11.431          12.011
  4360           8.991           0.891          10.762           3.385          12.035          11.459          12.038
  4370           8.991           0.891          10.762           3.393          12.063          11.486          12.066
  4380           8.991           0.891          10.762           3.401          12.090          11.514          12.093
  4390           8.991           0.891          10.762           3.408          12.118          11.541          12.121
  4400           8.991           0.891          10.762           3.416          12.146          11.569          12.148
  4410           8.991           0.891          10.762           3.424          12.173          11.596          12.176
  4420           8.991           0.891          10.762           3.431          12.201          11.624          12.203
  4430           8.991           0.891          10.762           3.439          12.228          11.652          12.231
  4440           8.991           0.891          10.762           3.447          12.256          11.679          12.258
  4450           8.991           0.891          10.762           3.455          12.283          11.707          12.286
  4460           8.991           0.891          10.762           3.462          12.311          11.734          12.314
  4470           8.991           0.891          10.762           3.470          12.338          11.762          12.341
  4480           8.991           0.891          10.762           3.478          12.366          11.789          12.369
  4490           8.991           0.891          10.762           3.486          12.394          11.817          12.396
  4500           8.991           0.891          10.762           3.493          12.421          11.844          12.424
  4510           8.991           0.891          10.762           3.501          12.449          11.872          12.451
  4520           8.991           0.891          10.762           3.509          12.476          11.899          12.479
  4530           8.991           0.891          10.762           3.517          12.504          11.927          12.506
  4540           8.991           0.891          10.762           3.524          12.531          11.955          12.534
  4550           8.991           0.891          10.762           3.532          12.559          11.982          12.561
  4560           8.991           0.891          10.762           3.540          12.586          12.010          12.589
  4570           8.991           0.891          10.762           3.548          12.614          12.037          12.617
  4580           8.991           0.891          10.763           3.555          12.642          12.065          12.644
  4590           8.991           0.891          10.763           3.563          12.669          12.092          12.672
  4600           8.991           0.891          10.763           3.571          12.697          12.120          12.699
  4610           8.992           0.891          10.763           3.579          12.724          12.147          12.727
  4620           8.992           0.891          10.763           3.586          12.752          12.175          12.754
  4630           8.992           0.891          10.763           3.594          12.779          12.203          12.782
  4640           8.992           0.891          10.763           3.602          12.807          12.230          12.809
  4650           8.992           0.891          10.763           3.610          12.834          12.258          12.837
  4660           8.992           0.891          10.763           3.617          12.862          12.285          12.865
  4670           8.992           0.891          10.763           3.625          12.890          12.313          12.892
  4680           8.992           0.891          10.763           3.633          12.917          12.340          12.920
  4690           8.992           0.891          10.763           3.641          12.945          12.368          12.947
  4700           8.992           0.891          10.763           3.648          12.972          12.395          12.975
  4710           8.992           0.891          10.763           3.656          13.000          12.423          13.002
  4720           8.992           0.891          10.763           3.664          13.027          12.451          13.030
  4730           8.992           0.891          10.763           3.672          13.055          12.478          13.057
  4740           8.992           0.891          10.763           3.679          13.082          12.506          13.085
  4750           8.992           0.891          10.763           3.687          13.110          12.533          13.112
  4760           8.992           0.891          10.763           3.695          13.138          12.561          13.140
  4770           8.992           0.891          10.763           3.703          13.165          12.588          13.168
  4780           8.992           0.891          10.763           3.710          13.193          12.616          13.195
  4790           8.992           0.891          10.763           3.718          13.220          12.643          13.223
  4800           8.992           0.891          10.763           3.726          13.248          12.671          13.250
  4810           8.992           0.891          10.763           3.734          13.275          12.699          13.278
  4820           8.992           0.891          10.763           3.741          13.303          12.726          13.305
  4830           8.992           0.891          10.763           3.749          13.330          12.754          13.333
  4840           8.992           0.891          10.763           3.757          13.358          12.781          13.360
  4850           8.992           0.891          10.764           3.765          13.386          12.809          13.388
  4860           8.992           0.891          10.764           3.772          13.413          12.836          13.416
  4870           8.992           0.891          10.764           3.780          13.441          12.864          13.443
  4880           8.992           0.891          10.764           3.788          13.468          12.891          13.471
  4890           8.992           0.891          10.764           3.796          13.496          12.919          13.498
  4900           8.992           0.891          10.764           3.803          13.523          12.947          13.526
  4910           8.993           0.891          10.764           3.811          13.551          12.974          13.553
  4920           8.993           0.891          10.764           3.819          13.578          13.002          13.581
  4930           8.993           0.891          10.764           3.827          13.606          13.029          13.608
  4940           8.993           0.891          10.764           3.834          13.634          13.057          13.636
  4950           8.993           0.891          10.764           3.842          13.661          13.084          13.664
  4960           8.993           0.891          10.764           3.850          13.689          13.112          13.691
  4970           8.993           0.891          10.764           3.858          13.716          13.140          13.719
  4980           8.993           0.891          10.764           3.865          13.744          13.167          13.746
  4990           8.993           0.891          10.764           3.873          13.771          13.195          13.774
  5000           8.993           0.891          10.764           3.881          13.799          13.222          13.801
  5010           8.993           0.891          10.764           3.889          13.826          13.250          13.829
  5020           8.993           0.891          10.764           3.896          13.854          13.277          13.856
  5030           8.993           0.891          10.764           3.904          13.882          13.305          13.884
  5040           8.993           0.891          10.764           3.912          13.909          13.332          13.911
  5050           8.993           0.891          10.764           3.920          13.937          13.360          13.939
  5060           8.993           0.891          10.764           3.927          13.964          13.388          13.967
  5070           8.993           0.891          10.764           3.935          13.992          13.415          13.994
  5080           8.993           0.891          10.764           3.943          14.019          13.443          14.022
  5090           8.993           0.891          10.764           3.951          14.047          13.470          14.049
  5100           8.993           0.891          10.764           3.958          14.075          13.498          14.077
  5110           8.993           0.891          10.764           3.966          14.102          13.525          14.104
  5120           8.993           0.891          10.764           3.974          14.130          13.553          14.132
  5130           8.993           0.891          10.764           3.982          14.157          13.580          14.159
  5140           8.993           0.891          10.764           3.989          14.185          13.608          14.187
  5150           8.993           0.891          10.764           3.997          14.212          13.636          14.215
  5160           8.993           0.891          10.764           4.005          14.240          13.663          14.242
  5170           8.993           0.891          10.764           4.013          14.267          13.691          14.270
  5180           8.993           0.891          10.765           4.020          14.295          13.718          14.297
  5190           8.993           0.891          10.765           4.028          14.323          13.746          14.325
  5200           8.993           0.891          10.765           4.036          14.350          13.773          14.352
  5210           8.993           0.891          10.765           4.044          14.378          13.801          14.380
  5220           8.993           0.891          10.765           4.051          14.405          13.828          14.407
  5230           8.993           0.891          10.765           4.059          14.433          13.856          14.435
  5240           8.993           0.891          10.765           4.067          14.460          13.884          14.463
  5250           8.993           0.891          10.765           4.075          14.488          13.911          14.490
  5260           8.993           0.891          10.765           4.082          14.515          13.939          14.518
  5270           8.994           0.891          10.765           4.090          14.543          13.966          14.545
  5280           8.994           0.891          10.765           4.098          14.571          13.994          14.573
  5290           8.994           0.891          10.765           4.106          14.598          14.021          14.600
  5300           8.994           0.891          10.765           4.113          14.626          14.049          14.628
  5310           8.994           0.891          10.765           4.121          14.653          14.077          14.655
  5320           8.994           0.891          10.765           4.129          14.681          14.104          14.683
  5330           8.994           0.891          10.765           4.137          14.708          14.132          14.711
  5340           8.994           0.891          10.765           4.144          14.736          14.159          14.738
  5350           8.994           0.891          10.765           4.152          14.764          14.187          14.766
  5360           8.994           0.891          10.765           4.160          14.791          14.214          14.793
  5370           8.994           0.891          10.765           4.168          14.819          14.242          14.821
  5380           8.994           0.891          10.765           4.175          14.846          14.269          14.848
  5390           8.994           0.891          10.765           4.183          14.874          14.297          14.876
  5400           8.994           0.891          10.765           4.191          14.901          14.325          14.903
  5410           8.994           0.891          10.765           4.199          14.929          14.352          14.931
  5420           8.994           0.891          10.765           4.206          14.956          14.380          14.959
  5430           8.994           0.891          10.765           4.214          14.984          14.407          14.986
  5440           8.994           0.891          10.765           4.222          15.012          14.435          15.014
  5450           8.994           0.891          10.765           4.230          15.039          14.462          15.041
  5460           8.994           0.891          10.765           4.237          15.067          14.490          15.069
  5470           8.994           0.891          10.765           4.245          15.094          14.518          15.096
  5480           8.994           0.891          10.765           4.253          15.122          14.545          15.124
  5490           8.994           0.891          10.765           4.261          15.149          14.573          15.152
  5500           8.994           0.891          10.765           4.268          15.177          14.600          15.179
  5510           8.994           0.891          10.765           4.276          15.204          14.628          15.207
  5520           8.994           0.891          10.765           4.284          15.232          14.655          15.234
  5530           8.994           0.891          10.765           4.292          15.260          14.683          15.262
  5540           8.994           0.891          10.765           4.299          15.287          14.710          15.289
  5550           8.994           0.891          10.765           4.307          15.315          14.738          15.317
  5560           8.994           0.891          10.765           4.315          15.342          14.766          15.344
  5570           8.994           0.891          10.765           4.323          15.370          14.793          15.372
  5580           8.994           0.891          10.766           4.330          15.397          14.821          15.400
  5590           8.994           0.891          10.766           4.338          15.425          14.848          15.427
  5600           8.994           0.891          10.766           4.346          15.453          14.876          15.455
  5610           8.994           0.891          10.766           4.354          15.480          14.903          15.482
  5620           8.994           0.891          10.766           4.361          15.508          14.931          15.510
  5630           8.994           0.891          10.766           4.369          15.535          14.959          15.537
  5640           8.994           0.891          10.766           4.377          15.563          14.986          15.565
  5650           8.994           0.891          10.766           4.385          15.590          15.014          15.592
  5660           8.994           0.891          10.766           4.392          15.618          15.041          15.620
  5670           8.994           0.891          10.766           4.400          15.645          15.069          15.648
  5680           8.994           0.891          10.766           4.408          15.673          15.096          15.675
  5690           8.994           0.891          10.766           4.416          15.701          15.124          15.703
  5700           8.994           0.891          10.766           4.423          15.728          15.151          15.730
  5710           8.994           0.891          10.766           4.431          15.756          15.179          15.758
  5720           8.994           0.891          10.766           4.439          15.783          15.207          15.785
  5730           8.995           0.891          10.766           4.447          15.811          15.234          15.813
  5740           8.995           0.891          10.766           4.454          15.838          15.262          15.840
  5750           8.995           0.891          10.766           4.462          15.866          15.289          15.868
  5760           8.995           0.891          10.766           4.470          15.894          15.317          15.896
  5770           8.995           0.891          10.766           4.478          15.921          15.344          15.923
  5780           8.995           0.891          10.766           4.485          15.949          15.372          15.951
  5790           8.995           0.891          10.766           4.493          15.976          15.400          15.978
  5800           8.995           0.891          10.766           4.501          16.004          15.427          16.006
  5810           8.995           0.891          10.766           4.509          16.031          15.455          16.033
  5820           8.995           0.891          10.766           4.516          16.059          15.482          16.061
  5830           8.995           0.891          10.766           4.524          16.086          15.510          16.089
  5840           8.995           0.891          10.766           4.532          16.114          15.537          16.116
  5850           8.995           0.891          10.766           4.540          16.142          15.565          16.144
  5860           8.995           0.891          10.766           4.547          16.169          15.592          16.171
  5870           8.995           0.891          10.766           4.555          16.197          15.620          16.199
  5880           8.995           0.891          10.766           4.563          16.224          15.648          16.226
  5890           8.995           0.891          10.766           4.571          16.252          15.675          16.254
  5900           8.995           0.891          10.766           4.578          16.279          15.703          16.281
  5910           8.995           0.891          10.766           4.586          16.307          15.730          16.309
  5920           8.995           0.891          10.766           4.594          16.335          15.758          16.337
  5930           8.995           0.891          10.766           4.602          16.362          15.785          16.364
  5940           8.995           0.891          10.766           4.609          16.390          15.813          16.392
  5950           8.995           0.891          10.766           4.617          16.417          15.841          16.419
  5960           8.995           0.891          10.766           4.625          16.445          15.868          16.447
  5970           8.995           0.891          10.766           4.633          16.472          15.896          16.474
  5980           8.995           0.891          10.766           4.640          16.500          15.923          16.502
  5990           8.995           0.891          10.766           4.648          16.528          15.951          16.529
  6000           8.995           0.891          10.766           4.656          16.555          15.978          16.557
  6010           8.995           0.891          10.766           4.664          16.583          16.006          16.585
  6020           8.995           0.891          10.766           4.671          16.610          16.033          16.612
  6030           8.995           0.891          10.766           4.679          16.638          16.061          16.640
  6040           8.995           0.891          10.766           4.687          16.665          16.089          16.667
  6050           8.995           0.891          10.766           4.695          16.693          16.116          16.695
  6060           8.995           0.891          10.766           4.702          16.720          16.144          16.722
  6070           8.995           0.891          10.766           4.710          16.748          16.171          16.750
  6080           8.995           0.891          10.766           4.718          16.776          16.199          16.778
  6090           8.995           0.891          10.766           4.726          16.803          16.226          16.805
  6100           8.995           0.891          10.767           4.733          16.831          16.254          16.833
  6110           8.995           0.891          10.767           4.741          16.858          16.282          16.860
  6120           8.995           0.891          10.767           4.749          16.886          16.309          16.888
  6130           8.995           0.891          10.767           4.757          16.913          16.337          16.915
  6140           8.995           0.891          10.767           4.764          16.941          16.364          16.943
  6150           8.995           0.891          10.767           4.772          16.969          16.392          16.970
  6160           8.995           0.891          10.767           4.780          16.996          16.419          16.998
  6170           8.995           0.891          10.767           4.788          17.024          16.447          17.026
  6180           8.995           0.891          10.767           4.795          17.051          16.475          17.053
  6190           8.995           0.891          10.767           4.803          17.079          16.502          17.081
  6200           8.995           0.891          10.767           4.811          17.106          16.530          17.108
  6210           8.995           0.891          10.767           4.819          17.134          16.557          17.136
  6220           8.995           0.891          10.767           4.826          17.162          16.585          17.163
  6230           8.995           0.891          10.767           4.834          17.189          16.612          17.191
  6240           8.995           0.891          10.767           4.842          17.217          16.640          17.219
  6250           8.995           0.891          10.767           4.850          17.244          16.667          17.246
  6260           8.995           0.891          10.767           4.857          17.272          16.695          17.274
  6270           8.995           0.891          10.767           4.865          17.299          16.723          17.301
  6280           8.995           0.891          10.767           4.873          17.327          16.750          17.329
  6290           8.995           0.891          10.767           4.881          17.354          16.778          17.356
  6300           8.995           0.891          10.767           4.888          17.382          16.805          17.384
  6310           8.995           0.891          10.767           4.896          17.410          16.833          17.411
  6320           8.995           0.891          10.767           4.904          17.437          16.860          17.439
  6330           8.996           0.891          10.767           4.912          17.465          16.888          17.467
  6340           8.996           0.891          10.767           4.920          17.492          16.916          17.494
  6350           8.996           0.891          10.767           4.927          17.520          16.943          17.522
  6360           8.996           0.891          10.767           4.935          17.547          16.971          17.549
  6370           8.996           0.891          10.767           4.943          17.575          16.998          17.577
  6380           8.996           0.891          10.767           4.951          17.603          17.026          17.604
  6390           8.996           0.891          10.767           4.958          17.630          17.053          17.632
  6400           8.996           0.891          10.767           4.966          17.658          17.081          17.660
  6410           8.996           0.891          10.767           4.974          17.685          17.109          17.687
  6420           8.996           0.891          10.767           4.982          17.713          17.136          17.715
  6430           8.996           0.891          10.767           4.989          17.740          17.164          17.742
  6440           8.996           0.891          10.767           4.997          17.768          17.191          17.770
  6450           8.996           0.891          10.767           5.005          17.796          17.219          17.797
  6460           8.996           0.891          10.767           5.013          17.823          17.246          17.825
  6470           8.996           0.891          10.767           5.020          17.851          17.274          17.852
  6480           8.996           0.891          10.767           5.028          17.878          17.301          17.880
  6490           8.996           0.891          10.767           5.036          17.906          17.329          17.908
  6500           8.996           0.891          10.767           5.044          17.933          17.357          17.935
  6510           8.996           0.891          10.767           5.051          17.961          17.384          17.963
  6520           8.996           0.891          10.767           5.059          17.988          17.412          17.990
  6530           8.996           0.891          10.767           5.067          18.016          17.439          18.018
  6540           8.996           0.891          10.767           5.075          18.044          17.467          18.045
  6550           8.996           0.891          10.767           5.082          18.071          17.494          18.073
  6560           8.996           0.891          10.767           5.090          18.099          17.522          18.101
  6570           8.996           0.891          10.767           5.098          18.126          17.550          18.128
  6580           8.996           0.891          10.767           5.106          18.154          17.577          18.156
  6590           8.996           0.891          10.767           5.113          18.181          17.605          18.183
  6600           8.996           0.891          10.767           5.121          18.209          17.632          18.211
  6610           8.996           0.891          10.767           5.129          18.237          17.660          18.238
  6620           8.996           0.891          10.767           5.137          18.264          17.687          18.266
  6630           8.996           0.891          10.767           5.144          18.292          17.715          18.294
  6640           8.996           0.891          10.767           5.152          18.319          17.743          18.321
  6650           8.996           0.891          10.767           5.160          18.347          17.770          18.349
  6660           8.996           0.891          10.767           5.168          18.374          17.798          18.376
  6670           8.996           0.891          10.767           5.175          18.402          17.825          18.404
  6680           8.996           0.891          10.767           5.183          18.430          17.853          18.431
  6690           8.996           0.891          10.767           5.191          18.457          17.880          18.459
  6700           8.996           0.891          10.767           5.199          18.485          17.908          18.486
  6710           8.996           0.891          10.767           5.206          18.512          17.936          18.514
  6720           8.996           0.891          10.767           5.214          18.540          17.963          18.542
  6730           8.996           0.891          10.767           5.222          18.567          17.991          18.569
  6740           8.996           0.891          10.767           5.230          18.595          18.018          18.597
  6750           8.996           0.891          10.767           5.237          18.623          18.046          18.624
  6760           8.996           0.891          10.767           5.245          18.650          18.073          18.652
  6770           8.996           0.891          10.767           5.253          18.678          18.101          18.679
  6780           8.996           0.891          10.767           5.261          18.705          18.129          18.707
  6790           8.996           0.891          10.768           5.268          18.733          18.156          18.735
  6800           8.996           0.891          10.768           5.276          18.760          18.184          18.762
  6810           8.996           0.891          10.768           5.284          18.788          18.211          18.790
  6820           8.996           0.891          10.768           5.292          18.816          18.239          18.817
  6830           8.996           0.891          10.768           5.299          18.843          18.266          18.845
  6840           8.996           0.891          10.768           5.307          18.871          18.294          18.872
  6850           8.996           0.891          10.768           5.315          18.898          18.321          18.900
  6860           8.996           0.891          10.768           5.323          18.926          18.349          18.927
  6870           8.996           0.891          10.768           5.330          18.953          18.377          18.955
  6880           8.996           0.891          10.768           5.338          18.981          18.404          18.983
  6890           8.996           0.891          10.768           5.346          19.008          18.432          19.010
  6900           8.996           0.891          10.768           5.354          19.036          18.459          19.038
  6910           8.996           0.891          10.768           5.361          19.064          18.487          19.065
  6920           8.996           0.891          10.768           5.369          19.091          18.514          19.093
  6930           8.996           0.891          10.768           5.377          19.119          18.542          19.120
  6940           8.996           0.891          10.768           5.385          19.146          18.570          19.148
  6950           8.996           0.891          10.768           5.392          19.174          18.597          19.176
  6960           8.996           0.891          10.768           5.400          19.201          18.625          19.203
  6970           8.996           0.891          10.768           5.408          19.229          18.652          19.231
  6980           8.996           0.891          10.768           5.416          19.257          18.680          19.258
  6990           8.996           0.891          10.768           5.423          19.284          18.707          19.286
  7000           8.996           0.891          10.768           5.431          19.312          18.735          19.313
  7010           8.996           0.891          10.768           5.439          19.339          18.763          19.341
  7020           8.996           0.891          10.768           5.447          19.367          18.790          19.369
  7030           8.996           0.891          10.768           5.454          19.394          18.818          19.396
  7040           8.996           0.891          10.768           5.462          19.422          18.845          19.424
  7050           8.996           0.891          10.768           5.470          19.450          18.873          19.451
  7060           8.996           0.891          10.768           5.478          19.477          18.900          19.479
  7070           8.996           0.891          10.768           5.485          19.505          18.928          19.506
  7080           8.996           0.891          10.768           5.493          19.532          18.956          19.534
  7090           8.996           0.891          10.768           5.501          19.560          18.983          19.562
  7100           8.996           0.891          10.768           5.509          19.587          19.011          19.589
  7110           8.996           0.891          10.768           5.516          19.615          19.038          19.617
  7120           8.996           0.891          10.768           5.524          19.643          19.066          19.644
  7130           8.996           0.891          10.768           5.532          19.670          19.093          19.672
  7140           8.996           0.891          10.768           5.540          19.698          19.121          19.699
  7150           8.996           0.891          10.768           5.547          19.725          19.149          19.727
  7160           8.996           0.891          10.768           5.555          19.753          19.176          19.754
  7170           8.996           0.891          10.768           5.563          19.780          19.204          19.782
  7180           8.997           0.891          10.768           5.571          19.808          19.231          19.810
  7190           8.997           0.891          10.768           5.578          19.836          19.259          19.837
  7200           8.997           0.891          10.768           5.586          19.863          19.286          19.865
  7210           8.997           0.891          10.768           5.594          19.891          19.314          19.892
  7220           8.997           0.891          10.768           5.602          19.918          19.341          19.920
  7230           8.997           0.891          10.768           5.609          19.946          19.369          19.947
  7240           8.997           0.891          10.768           5.617          19.973          19.397          19.975
  7250           8.997           0.891          10.768           5.625          20.001          19.424          20.003
  7260           8.997           0.891          10.768           5.633          20.029          19.452          20.030
  7270           8.997           0.891          10.768           5.640          20.056          19.479          20.058
  7280           8.997           0.891          10.768           5.648          20.084          19.507          20.085
  7290           8.997           0.891          10.768           5.656          20.111          19.534          20.113
  7300           8.997           0.891          10.768           5.664          20.139          19.562          20.140
  7310           8.997           0.891          10.768           5.671          20.166          19.590          20.168
  7320           8.997           0.891          10.768           5.679          20.194          19.617          20.196
  7330           8.997           0.891          10.768           5.687          20.221          19.645          20.223
  7340           8.997           0.891          10.768           5.695          20.249          19.672          20.251
  7350           8.997           0.891          10.768           5.702          20.277          19.700          20.278
  7360           8.997           0.891          10.768           5.710          20.304          19.727          20.306
  7370           8.997           0.891          10.768           5.718          20.332          19.755          20.333
  7380           8.997           0.891          10.768           5.726          20.359          19.783          20.361
  7390           8.997           0.891          10.768           5.733          20.387          19.810          20.388
  7400           8.997           0.891          10.768           5.741          20.414          19.838          20.416
  7410           8.997           0.891          10.768           5.749          20.442          19.865          20.444
  7420           8.997           0.891          10.768           5.757          20.470          19.893          20.471
  7430           8.997           0.891          10.768           5.765          20.497          19.920          20.499
  7440           8.997           0.891          10.768           5.772          20.525          19.948          20.526
  7450           8.997           0.891          10.768           5.780          20.552          19.976          20.554
  7460           8.997           0.891          10.768           5.788          20.580          20.003          20.581
  7470           8.997           0.891          10.768           5.796          20.607          20.031          20.609
  7480           8.997           0.891          10.768           5.803          20.635          20.058          20.637
  7490           8.997           0.891          10.768           5.811          20.663          20.086          20.664
  7500           8.997           0.891          10.768           5.819          20.690          20.113          20.692
  7510           8.997           0.891          10.768           5.827          20.718          20.141          20.719
  7520           8.997           0.891          10.768           5.834          20.745          20.169          20.747
  7530           8.997           0.891          10.768           5.842          20.773          20.196          20.774
  7540           8.997           0.891          10.768           5.850          20.800          20.224          20.802
  7550           8.997           0.891          10.768           5.858          20.828          20.251          20.830
  7560           8.997           0.891          10.768           5.865          20.856          20.279          20.857
  7570           8.997           0.891          10.768           5.873          20.883          20.306          20.885
  7580           8.997           0.891          10.768           5.881          20.911          20.334          20.912
  7590           8.997           0.891          10.768           5.889          20.938          20.362          20.940
  7600           8.997           0.891          10.768           5.896          20.966          20.389          20.967
  7610           8.997           0.891          10.768           5.904          20.993          20.417          20.995
  7620           8.997           0.891          10.768           5.912          21.021          20.444          21.023
  7630           8.997           0.891          10.768           5.920          21.049          20.472          21.050
  7640           8.997           0.891          10.768           5.927          21.076          20.499          21.078
  7650           8.997           0.891          10.768           5.935          21.104          20.527          21.105
  7660           8.997           0.891          10.768           5.943          21.131          20.555          21.133
  7670           8.997           0.891          10.768           5.951          21.159          20.582          21.160
  7680           8.997           0.891          10.768           5.958          21.186          20.610          21.188
  7690           8.997           0.891          10.768           5.966          21.214          20.637          21.216
  7700           8.997           0.891          10.768           5.974          21.242          20.665          21.243
  7710           8.997           0.891          10.768           5.982          21.269          20.692          21.271
  7720           8.997           0.891          10.768           5.989          21.297          20.720          21.298
  7730           8.997           0.891          10.768           5.997          21.324          20.748          21.326
  7740           8.997           0.891          10.768           6.005          21.352          20.775          21.353
  7750           8.997           0.891          10.768           6.013          21.379          20.803          21.381
  7760           8.997           0.891          10.768           6.020          21.407          20.830          21.408
  7770           8.997           0.891          10.768           6.028          21.435          20.858          21.436
  7780           8.997           0.891          10.769           6.036          21.462          20.885          21.464
  7790           8.997           0.891          10.769           6.044          21.490          20.913          21.491
  7800           8.997           0.891          10.769           6.051          21.517          20.941          21.519
  7810           8.997           0.891          10.769           6.059          21.545          20.968          21.546
  7820           8.997           0.891          10.769           6.067          21.572          20.996          21.574
  7830           8.997           0.891          10.769           6.075          21.600          21.023          21.601
  7840           8.997           0.891          10.769           6.082          21.628          21.051          21.629
  7850           8.997           0.891          10.769           6.090          21.655          21.078          21.657
  7860           8.997           0.891          10.769           6.098          21.683          21.106          21.684
  7870           8.997           0.891          10.769           6.106          21.710          21.134          21.712
  7880           8.997           0.891          10.769           6.113          21.738          21.161          21.739
  7890           8.997           0.891          10.769           6.121          21.765          21.189          21.767
  7900           8.997           0.891          10.769           6.129          21.793          21.216          21.794
  7910           8.997           0.891          10.769           6.137          21.821          21.244          21.822
  7920           8.997           0.891          10.769           6.144          21.848          21.271          21.850
  7930           8.997           0.891          10.769           6.152          21.876          21.299          21.877
  7940           8.997           0.891          10.769           6.160          21.903          21.327          21.905
  7950           8.997           0.891          10.769           6.168          21.931          21.354          21.932
  7960           8.997           0.891          10.769           6.175          21.958          21.382          21.960
  7970           8.997           0.891          10.769           6.183          21.986          21.409          21.987
  7980           8.997           0.891          10.769           6.191          22.014          21.437          22.015
  7990           8.997           0.891          10.769           6.199          22.041          21.464          22.043
  8000           8.997           0.891          10.769           6.206          22.069          21.492          22.070
  8010           8.997           0.891          10.769           6.214          22.096          21.519          22.098
  8020           8.997           0.891          10.769           6.222          22.124          21.547          22.125
  8030           8.997           0.891          10.769           6.230          22.151          21.575          22.153
  8040           8.997           0.891          10.769           6.237          22.179          21.602          22.180
  8050           8.997           0.891          10.769           6.245          22.207          21.630          22.208
  8060           8.997           0.891          10.769           6.253          22.234          21.657          22.236
  8070           8.997           0.891          10.769           6.261          22.262          21.685          22.263
  8080           8.997           0.891          10.769           6.268          22.289          21.712          22.291
  8090           8.997           0.891          10.769           6.276          22.317          21.740          22.318
  8100           8.997           0.891          10.769           6.284          22.344          21.768          22.346
  8110           8.997           0.891          10.769           6.292          22.372          21.795          22.373
  8120           8.997           0.891          10.769           6.299          22.399          21.823          22.401
  8130           8.997           0.891          10.769           6.307          22.427          21.850          22.429
  8140           8.997           0.891          10.769           6.315          22.455          21.878          22.456
  8150           8.997           0.891          10.769           6.323          22.482          21.905          22.484
  8160           8.997           0.891          10.769           6.330          22.510          21.933          22.511
  8170           8.997           0.891          10.769           6.338          22.537          21.961          22.539
  8180           8.997           0.891          10.769           6.346          22.565          21.988          22.566
  8190           8.997           0.891          10.769           6.354          22.592          22.016          22.594
  8200           8.997           0.891          10.769           6.361          22.620          22.043          22.622
  8210           8.997           0.891          10.769           6.369          22.648          22.071          22.649
  8220           8.997           0.891          10.769           6.377          22.675          22.098          22.677
  8230           8.997           0.891          10.769           6.385          22.703          22.126          22.704
  8240           8.997           0.891          10.769           6.393          22.730          22.154          22.732
  8250           8.997           0.891          10.769           6.400          22.758          22.181          22.759
  8260           8.997           0.891          10.769           6.408          22.785          22.209          22.787
  8270           8.997           0.891          10.769           6.416          22.813          22.236          22.814
  8280           8.997           0.891          10.769           6.424          22.841          22.264          22.842
  8290           8.997           0.891          10.769           6.431          22.868          22.291          22.870
  8300           8.997           0.891          10.769           6.439          22.896          22.319          22.897
  8310           8.997           0.891          10.769           6.447          22.923          22.347          22.925
  8320           8.997           0.891          10.769           6.455          22.951          22.374          22.952
  8330           8.997           0.891          10.769           6.462          22.978          22.402          22.980
  8340           8.997           0.891          10.769           6.470          23.006          22.429          23.007
  8350           8.997           0.891          10.769           6.478          23.034          22.457          23.035
  8360           8.997           0.891          10.769           6.486          23.061          22.484          23.063
  8370           8.997           0.891          10.769           6.493          23.089          22.512          23.090
  8380           8.997           0.891          10.769           6.501          23.116          22.540          23.118
  8390           8.997           0.891          10.769           6.509          23.144          22.567          23.145
  8400           8.997           0.891          10.769           6.517          23.171          22.595          23.173
  8410           8.997           0.891          10.769           6.524          23.199          22.622          23.200
  8420           8.997           0.891          10.769           6.532          23.227          22.650          23.228
  8430           8.997           0.891          10.769           6.540          23.254          22.677          23.256
  8440           8.997           0.891          10.769           6.548          23.282          22.705          23.283
  8450           8.997           0.891          10.769           6.555          23.309          22.733          23.311
  8460           8.997           0.891          10.769           6.563          23.337          22.760          23.338
  8470           8.997           0.891          10.769           6.571          23.364          22.788          23.366
  8480           8.997           0.891          10.769           6.579          23.392          22.815          23.393
  8490           8.997           0.891          10.769           6.586          23.420          22.843          23.421
  8500           8.998           0.891          10.769           6.594          23.447          22.870          23.449
  8510           8.998           0.891          10.769           6.602          23.475          22.898          23.476
  8520           8.998           0.891          10.769           6.610          23.502          22.926          23.504
  8530           8.998           0.891          10.769           6.617          23.530          22.953          23.531
  8540           8.998           0.891          10.769           6.625          23.557          22.981          23.559
  8550           8.998           0.891          10.769           6.633          23.585          23.008          23.586
  8560           8.998           0.891          10.769           6.641          23.613          23.036          23.614
  8570           8.998           0.891          10.769           6.648          23.640          23.063          23.642
  8580           8.998           0.891          10.769           6.656          23.668          23.091          23.669
  8590           8.998           0.891          10.769           6.664          23.695          23.119          23.697
  8600           8.998           0.891          10.769           6.672          23.723          23.146          23.724
  8610           8.998           0.891          10.769           6.679          23.750          23.174          23.752
  8620           8.998           0.891          10.769           6.687          23.778          23.201          23.779
  8630           8.998           0.891          10.769           6.695          23.806          23.229          23.807
  8640           8.998           0.891          10.769           6.703          23.833          23.256          23.835
  8650           8.998           0.891          10.769           6.710          23.861          23.284          23.862
  8660           8.998           0.891          10.769           6.718          23.888          23.312          23.890
  8670           8.998           0.891          10.769           6.726          23.916          23.339          23.917
  8680           8.998           0.891          10.769           6.734          23.943          23.367          23.945
  8690           8.998           0.891          10.769           6.741          23.971          23.394          23.972
  8700           8.998           0.891          10.769           6.749          23.999          23.422          24.000
  8710           8.998           0.891          10.769           6.757          24.026          23.449          24.028
  8720           8.998           0.891          10.769           6.765          24.054          23.477          24.055
  8730           8.998           0.891          10.769           6.772          24.081          23.505          24.083
  8740           8.998           0.891          10.769           6.780          24.109          23.532          24.110
  8750           8.998           0.891          10.769           6.788          24.136          23.560          24.138
  8760           8.998           0.891          10.769           6.796          24.164          23.587          24.165
  8770           8.998           0.891          10.769           6.803          24.192          23.615          24.193
  8780           8.998           0.891          10.769           6.811          24.219          23.642          24.221
  8790           8.998           0.891          10.769           6.819          24.247          23.670          24.248
  8800           8.998           0.891          10.769           6.827          24.274          23.698          24.276
  8810           8.998           0.891          10.769           6.834          24.302          23.725          24.303
  8820           8.998           0.891          10.769           6.842          24.329          23.753          24.331
  8830           8.998           0.891          10.769           6.850          24.357          23.780          24.358
  8840           8.998           0.891          10.769           6.858          24.385          23.808          24.386
  8850           8.998           0.891          10.769           6.865          24.412          23.835          24.414
  8860           8.998           0.891          10.769           6.873          24.440          23.863          24.441
  8870           8.998           0.891          10.769           6.881          24.467          23.891          24.469
  8880           8.998           0.891          10.769           6.889          24.495          23.918          24.496
  8890           8.998           0.891          10.769           6.896          24.522          23.946          24.524
  8900           8.998           0.891          10.769           6.904          24.550          23.973          24.551
  8910           8.998           0.891          10.769           6.912          24.578          24.001          24.579
  8920           8.998           0.891          10.769           6.920          24.605          24.028          24.607
  8930           8.998           0.891          10.769           6.927          24.633          24.056          24.634
  8940           8.998           0.891          10.769           6.935          24.660          24.084          24.662
  8950           8.998           0.891          10.769           6.943          24.688          24.111          24.689
  8960           8.998           0.891          10.769           6.951          24.715          24.139          24.717
  8970           8.998           0.891          10.769           6.959          24.743          24.166          24.744
  8980           8.998           0.891          10.769           6.966          24.771          24.194          24.772
  8990           8.998           0.891          10.769           6.974          24.798          24.221          24.800
  9000           8.998           0.891          10.769           6.982          24.826          24.249          24.827
  9010           8.998           0.891          10.769           6.990          24.853          24.277          24.855
  9020           8.998           0.891          10.769           6.997          24.881          24.304          24.882
  9030           8.998           0.891          10.769           7.005          24.908          24.332          24.910
  9040           8.998           0.891          10.769           7.013          24.936          24.359          24.937
  9050           8.998           0.891          10.769           7.021          24.964          24.387          24.965
  9060           8.998           0.891          10.769           7.028          24.991          24.414          24.993
  9070           8.998           0.891          10.769           7.036          25.019          24.442          25.020
  9080           8.998           0.891          10.769           7.044          25.046          24.470          25.048
  9090           8.998           0.891          10.769           7.052          25.074          24.497          25.075
  9100           8.998           0.891          10.769           7.059          25.101          24.525          25.103
  9110           8.998           0.891          10.769           7.067          25.129          24.552          25.130
  9120           8.998           0.891          10.769           7.075          25.157          24.580          25.158
  9130           8.998           0.891          10.769           7.083          25.184          24.607          25.186
  9140           8.998           0.891          10.769           7.090          25.212          24.635          25.213
  9150           8.998           0.891          10.769           7.098          25.239          24.663          25.241
  9160           8.998           0.891          10.769           7.106          25.267          24.690          25.268
  9170           8.998           0.891          10.769           7.114          25.295          24.718          25.296
  9180           8.998           0.891          10.769           7.121          25.322          24.745          25.323
  9190           8.998           0.891          10.769           7.129          25.350          24.773          25.351
  9200           8.998           0.891          10.769           7.137          25.377          24.800          25.379
  9210           8.998           0.891          10.769           7.145          25.405          24.828          25.406
  9220           8.998           0.891          10.769           7.152          25.432          24.856          25.434
  9230           8.998           0.891          10.769           7.160          25.460          24.883          25.461
  9240           8.998           0.891          10.769           7.168          25.488          24.911          25.489
  9250           8.998           0.891          10.769           7.176          25.515          24.938          25.516
  9260           8.998           0.891          10.769           7.183          25.543          24.966          25.544
  9270           8.998           0.891          10.769           7.191          25.570          24.994          25.572
  9280           8.998           0.891          10.769           7.199          25.598          25.021          25.599
  9290           8.998           0.891          10.769           7.207          25.625          25.049          25.627
  9300           8.998           0.891          10.769           7.214          25.653          25.076          25.654
  9310           8.998           0.891          10.769           7.222          25.681          25.104          25.682
  9320           8.998           0.891          10.769           7.230          25.708          25.131          25.709
  9330           8.998           0.891          10.769           7.238          25.736          25.159          25.737
  9340           8.998           0.891          10.769           7.245          25.763          25.187          25.764
  9350           8.998           0.891          10.769           7.253          25.791          25.214          25.792
  9360           8.998           0.891          10.769           7.261          25.818          25.242          25.820
  9370           8.998           0.891          10.769           7.269          25.846          25.269          25.847
  9380           8.998           0.891          10.770           7.276          25.874          25.297          25.875
  9390           8.998           0.891          10.770           7.284          25.901          25.324          25.902
  9400           8.998           0.891          10.770           7.292          25.929          25.352          25.930
  9410           8.998           0.891          10.770           7.300          25.956          25.380          25.957
  9420           8.998           0.891          10.770           7.307          25.984          25.407          25.985
  9430           8.998           0.891          10.770           7.315          26.011          25.435          26.013
  9440           8.998           0.891          10.770           7.323          26.039          25.462          26.040
  9450           8.998           0.891          10.770           7.331          26.067          25.490          26.068
  9460           8.998           0.891          10.770           7.338          26.094          25.517          26.095
  9470           8.998           0.891          10.770           7.346          26.122          25.545          26.123
  9480           8.998           0.891          10.770           7.354          26.149          25.573          26.150
  9490           8.998           0.891          10.770           7.362          26.177          25.600          26.178
  9500           8.998           0.891          10.770           7.369          26.204          25.628          26.206
  9510           8.998           0.891          10.770           7.377          26.232          25.655          26.233
  9520           8.998           0.891          10.770           7.385          26.260          25.683          26.261
  9530           8.998           0.891          10.770           7.393          26.287          25.710          26.288
  9540           8.998           0.891          10.770           7.400          26.315          25.738          26.316
  9550           8.998           0.891          10.770           7.408          26.342          25.766          26.343
  9560           8.998           0.891          10.770           7.416          26.370          25.793          26.371
  9570           8.998           0.891          10.770           7.424          26.397          25.821          26.399
  9580           8.998           0.891          10.770           7.431          26.425          25.848          26.426
  9590           8.998           0.891          10.770           7.439          26.453          25.876          26.454
  9600           8.998           0.891          10.770           7.447          26.480          25.903          26.481
  9610           8.998           0.891          10.770           7.455          26.508          25.931          26.509
  9620           8.998           0.891          10.770           7.463          26.535          25.959          26.536
  9630           8.998           0.891          10.770           7.470          26.563          25.986          26.564
  9640           8.998           0.891          10.770           7.478          26.590          26.014          26.592
  9650           8.998           0.891          10.770           7.486          26.618          26.041          26.619
  9660           8.998           0.891          10.770           7.494          26.646          26.069          26.647
  9670           8.998           0.891          10.770           7.501          26.673          26.096          26.674
  9680           8.998           0.891          10.770           7.509          26.701          26.124          26.702
  9690           8.998           0.891          10.770           7.517          26.728          26.152          26.729
  9700           8.998           0.891          10.770           7.525          26.756          26.179          26.757
  9710           8.998           0.891          10.770           7.532          26.783          26.207          26.785
  9720           8.998           0.891          10.770           7.540          26.811          26.234          26.812
  9730           8.998           0.891          10.770           7.548          26.839          26.262          26.840
  9740           8.998           0.891          10.770           7.556          26.866          26.289          26.867
  9750           8.998           0.891          10.770           7.563          26.894          26.317          26.895
  9760           8.998           0.891          10.770           7.571          26.921          26.345          26.922
  9770           8.998           0.891          10.770           7.579          26.949          26.372          26.950
  9780           8.998           0.891          10.770           7.587          26.976          26.400          26.978
  9790           8.998           0.891          10.770           7.594          27.004          26.427          27.005
  9800           8.998           0.891          10.770           7.602          27.032          26.455          27.033
  9810           8.998           0.891          10.770           7.610          27.059          26.482          27.060
  9820           8.998           0.891          10.770           7.618          27.087          26.510          27.088
  9830           8.998           0.891          10.770           7.625          27.114          26.538          27.115
  9840           8.998           0.891          10.770           7.633          27.142          26.565          27.143
  9850           8.998           0.891          10.770           7.641          27.169          26.593          27.171
  9860           8.998           0.891          10.770           7.649          27.197          26.620          27.198
  9870           8.998           0.891          10.770           7.656          27.225          26.648          27.226
  9880           8.998           0.891          10.770           7.664          27.252          26.675          27.253
  9890           8.998           0.891          10.770           7.672          27.280          26.703          27.281
  9900           8.998           0.891          10.770           7.680          27.307          26.731          27.309
  9910           8.998           0.891          10.770           7.687          27.335          26.758          27.336
  9920           8.998           0.891          10.770           7.695          27.362          26.786          27.364
  9930           8.998           0.891          10.770           7.703          27.390          26.813          27.391
  9940           8.998           0.891          10.770           7.711          27.418          26.841          27.419
  9950           8.998           0.891          10.770           7.718          27.445          26.868          27.446
  9960           8.998           0.891          10.770           7.726          27.473          26.896          27.474
  9970           8.998           0.891          10.770           7.734          27.500          26.924          27.502
  9980           8.998           0.891          10.770           7.742          27.528          26.950          27.529
  9990           8.998           0.891          10.770           7.749          27.555          26.982          27.557
 10000           8.998           0.891          10.770           7.757          27.583          26.993          27.584
