#   T(K)    C_v(k_B/fu)        Gamma     alpha_v*10^6(K^-1)   E_th(eV)                       P_th_(GPa)
#                                                                         ----------------------------------------------
#                                                                          {sum G_i.U_iV}  {int G.C_v/V dT}    {G.U/V}
# ---------------------------------------------------------------------------------------------------------------------------------------------------
    10           0.000           0.757           0.000           0.263           5.416           0.000           3.092
    20           0.000           0.790           0.000           0.263           5.416           0.000           3.227
    30           0.001           0.943           0.001           0.263           5.416           0.000           3.854
    40           0.004           1.156           0.007           0.263           5.416           0.000           4.725
    50           0.015           1.344           0.029           0.263           5.416           0.000           5.492
    60           0.035           1.484           0.076           0.263           5.416           0.001           6.065
    70           0.067           1.580           0.155           0.263           5.417           0.002           6.459
    80           0.111           1.641           0.265           0.263           5.419           0.005           6.708
    90           0.166           1.673           0.406           0.263           5.422           0.009           6.844
   100           0.234           1.686           0.575           0.263           5.427           0.014           6.899
   110           0.313           1.684           0.769           0.263           5.433           0.021           6.900
   120           0.402           1.674           0.984           0.264           5.441           0.030           6.866
   130           0.502           1.659           1.218           0.264           5.451           0.041           6.814
   140           0.611           1.641           1.466           0.264           5.463           0.055           6.754
   150           0.728           1.623           1.726           0.265           5.478           0.070           6.693
   160           0.851           1.605           1.995           0.266           5.495           0.089           6.634
   170           0.979           1.587           2.270           0.266           5.515           0.110           6.582
   180           1.110           1.571           2.549           0.267           5.537           0.133           6.536
   190           1.245           1.556           2.830           0.268           5.561           0.159           6.498
   200           1.380           1.542           3.110           0.270           5.589           0.188           6.468
   210           1.517           1.530           3.390           0.271           5.619           0.219           6.445
   220           1.653           1.518           3.666           0.272           5.651           0.252           6.429
   230           1.787           1.508           3.938           0.274           5.686           0.288           6.420
   240           1.921           1.499           4.205           0.275           5.723           0.327           6.418
   250           2.052           1.490           4.466           0.277           5.763           0.368           6.421
   260           2.180           1.482           4.721           0.279           5.805           0.411           6.430
   270           2.305           1.475           4.970           0.281           5.850           0.457           6.444
   280           2.428           1.469           5.211           0.283           5.896           0.505           6.463
   290           2.547           1.463           5.444           0.285           5.945           0.555           6.486
   300           2.662           1.458           5.670           0.287           5.996           0.607           6.513
   310           2.774           1.453           5.888           0.289           6.049           0.661           6.545
   320           2.882           1.449           6.099           0.292           6.104           0.717           6.580
   330           2.986           1.445           6.302           0.294           6.161           0.775           6.618
   340           3.087           1.441           6.498           0.297           6.220           0.834           6.659
   350           3.184           1.437           6.686           0.300           6.280           0.896           6.704
   360           3.277           1.434           6.867           0.303           6.343           0.959           6.751
   370           3.367           1.431           7.041           0.305           6.406           1.023           6.801
   380           3.454           1.428           7.208           0.308           6.472           1.089           6.853
   390           3.537           1.426           7.369           0.311           6.539           1.157           6.908
   400           3.617           1.424           7.523           0.314           6.607           1.226           6.965
   410           3.694           1.421           7.671           0.318           6.677           1.296           7.024
   420           3.768           1.419           7.813           0.321           6.748           1.368           7.085
   430           3.839           1.417           7.949           0.324           6.820           1.441           7.147
   440           3.907           1.416           8.080           0.327           6.894           1.515           7.212
   450           3.972           1.414           8.205           0.331           6.968           1.591           7.278
   460           4.035           1.412           8.326           0.334           7.044           1.667           7.346
   470           4.095           1.411           8.442           0.338           7.121           1.744           7.415
   480           4.153           1.410           8.553           0.341           7.199           1.823           7.486
   490           4.209           1.408           8.659           0.345           7.278           1.902           7.558
   500           4.262           1.407           8.762           0.349           7.358           1.983           7.631
   510           4.313           1.406           8.860           0.352           7.439           2.064           7.706
   520           4.363           1.405           8.954           0.356           7.521           2.146           7.781
   530           4.410           1.404           9.045           0.360           7.603           2.229           7.858
   540           4.456           1.403           9.132           0.364           7.687           2.313           7.936
   550           4.500           1.402           9.216           0.367           7.771           2.398           8.015
   560           4.542           1.401           9.297           0.371           7.856           2.483           8.095
   570           4.583           1.400           9.374           0.375           7.942           2.569           8.176
   580           4.622           1.399           9.449           0.379           8.028           2.656           8.258
   590           4.659           1.399           9.520           0.383           8.115           2.743           8.340
   600           4.695           1.398           9.589           0.387           8.203           2.831           8.424
   610           4.730           1.397           9.656           0.391           8.291           2.920           8.508
   620           4.764           1.397           9.720           0.395           8.380           3.009           8.593
   630           4.796           1.396           9.782           0.400           8.470           3.099           8.679
   640           4.827           1.395           9.841           0.404           8.560           3.189           8.765
   650           4.857           1.395           9.898           0.408           8.650           3.280           8.852
   660           4.886           1.394           9.954           0.412           8.741           3.371           8.940
   670           4.914           1.394          10.007           0.416           8.833           3.463           9.028
   680           4.941           1.393          10.059           0.421           8.925           3.555           9.117
   690           4.967           1.393          10.108           0.425           9.017           3.648           9.206
   700           4.993           1.392          10.156           0.429           9.110           3.741           9.296
   710           5.017           1.392          10.202           0.433           9.204           3.835           9.387
   720           5.040           1.392          10.247           0.438           9.298           3.929           9.478
   730           5.063           1.391          10.290           0.442           9.392           4.024           9.569
   740           5.085           1.391          10.332           0.446           9.487           4.118           9.661
   750           5.106           1.390          10.372           0.451           9.582           4.214           9.754
   760           5.127           1.390          10.411           0.455           9.677           4.309           9.847
   770           5.147           1.390          10.449           0.460           9.773           4.405           9.940
   780           5.166           1.389          10.486           0.464           9.869           4.501          10.034
   790           5.184           1.389          10.521           0.469           9.965           4.598          10.128
   800           5.202           1.389          10.555           0.473          10.062           4.695          10.222
   810           5.220           1.388          10.589           0.478          10.159           4.792          10.317
   820           5.237           1.388          10.621           0.482          10.256           4.889          10.413
   830           5.253           1.388          10.652           0.487          10.354           4.987          10.508
   840           5.269           1.388          10.682           0.491          10.452           5.085          10.604
   850           5.284           1.387          10.711           0.496          10.550           5.183          10.700
   860           5.299           1.387          10.740           0.500          10.648           5.282          10.797
   870           5.314           1.387          10.767           0.505          10.747           5.381          10.894
   880           5.328           1.387          10.794           0.509          10.846           5.480          10.991
   890           5.341           1.386          10.820           0.514          10.945           5.579          11.088
   900           5.355           1.386          10.845           0.519          11.045           5.679          11.186
   910           5.368           1.386          10.870           0.523          11.144           5.778          11.284
   920           5.380           1.386          10.893           0.528          11.244           5.878          11.382
   930           5.392           1.386          10.916           0.532          11.344           5.979          11.481
   940           5.404           1.385          10.939           0.537          11.444           6.079          11.580
   950           5.415           1.385          10.961           0.542          11.545           6.180          11.679
   960           5.427           1.385          10.982           0.546          11.646           6.280          11.778
   970           5.437           1.385          11.002           0.551          11.747           6.381          11.877
   980           5.448           1.385          11.022           0.556          11.848           6.483          11.977
   990           5.458           1.385          11.042           0.561          11.949           6.584          12.077
  1000           5.468           1.384          11.061           0.565          12.050           6.685          12.177
  1010           5.478           1.384          11.079           0.570          12.152           6.787          12.277
  1020           5.487           1.384          11.097           0.575          12.254           6.889          12.378
  1030           5.497           1.384          11.115           0.579          12.356           6.991          12.478
  1040           5.506           1.384          11.132           0.584          12.458           7.093          12.579
  1050           5.514           1.384          11.148           0.589          12.560           7.195          12.680
  1060           5.523           1.384          11.165           0.594          12.662           7.298          12.781
  1070           5.531           1.384          11.180           0.598          12.765           7.400          12.883
  1080           5.539           1.383          11.196           0.603          12.867           7.503          12.984
  1090           5.547           1.383          11.211           0.608          12.970           7.606          13.086
  1100           5.555           1.383          11.225           0.613          13.073           7.709          13.188
  1110           5.562           1.383          11.240           0.618          13.176           7.812          13.290
  1120           5.570           1.383          11.253           0.622          13.280           7.916          13.392
  1130           5.577           1.383          11.267           0.627          13.383           8.019          13.494
  1140           5.584           1.383          11.280           0.632          13.486           8.122          13.597
  1150           5.591           1.383          11.293           0.637          13.590           8.226          13.699
  1160           5.597           1.383          11.306           0.642          13.694           8.330          13.802
  1170           5.604           1.382          11.318           0.646          13.797           8.434          13.905
  1180           5.610           1.382          11.330           0.651          13.901           8.538          14.008
  1190           5.616           1.382          11.342           0.656          14.005           8.642          14.111
  1200           5.622           1.382          11.353           0.661          14.110           8.746          14.214
  1210           5.628           1.382          11.364           0.666          14.214           8.850          14.317
  1220           5.634           1.382          11.375           0.671          14.318           8.955          14.421
  1230           5.640           1.382          11.386           0.675          14.423           9.059          14.525
  1240           5.645           1.382          11.396           0.680          14.527           9.164          14.628
  1250           5.650           1.382          11.407           0.685          14.632           9.268          14.732
  1260           5.656           1.382          11.417           0.690          14.737           9.373          14.836
  1270           5.661           1.382          11.426           0.695          14.841           9.478          14.940
  1280           5.666           1.382          11.436           0.700          14.946           9.583          15.044
  1290           5.671           1.381          11.445           0.705          15.051           9.688          15.148
  1300           5.676           1.381          11.454           0.710          15.156           9.793          15.253
  1310           5.680           1.381          11.463           0.715          15.262           9.898          15.357
  1320           5.685           1.381          11.472           0.719          15.367          10.004          15.461
  1330           5.689           1.381          11.481           0.724          15.472          10.109          15.566
  1340           5.694           1.381          11.489           0.729          15.577          10.215          15.671
  1350           5.698           1.381          11.497           0.734          15.683          10.320          15.776
  1360           5.702           1.381          11.505           0.739          15.789          10.426          15.880
  1370           5.707           1.381          11.513           0.744          15.894          10.531          15.985
  1380           5.711           1.381          11.521           0.749          16.000          10.637          16.090
  1390           5.715           1.381          11.529           0.754          16.106          10.743          16.195
  1400           5.719           1.381          11.536           0.759          16.211          10.849          16.301
  1410           5.722           1.381          11.543           0.764          16.317          10.955          16.406
  1420           5.726           1.381          11.550           0.769          16.423          11.061          16.511
  1430           5.730           1.381          11.557           0.774          16.529          11.167          16.617
  1440           5.733           1.381          11.564           0.778          16.635          11.273          16.722
  1450           5.737           1.380          11.571           0.783          16.742          11.379          16.828
  1460           5.740           1.380          11.577           0.788          16.848          11.485          16.933
  1470           5.744           1.380          11.584           0.793          16.954          11.592          17.039
  1480           5.747           1.380          11.590           0.798          17.060          11.698          17.145
  1490           5.750           1.380          11.596           0.803          17.167          11.804          17.250
  1500           5.754           1.380          11.602           0.808          17.273          11.911          17.356
  1510           5.757           1.380          11.608           0.813          17.380          12.017          17.462
  1520           5.760           1.380          11.614           0.818          17.486          12.124          17.568
  1530           5.763           1.380          11.620           0.823          17.593          12.231          17.674
  1540           5.766           1.380          11.626           0.828          17.700          12.337          17.781
  1550           5.769           1.380          11.631           0.833          17.806          12.444          17.887
  1560           5.772           1.380          11.637           0.838          17.913          12.551          17.993
  1570           5.774           1.380          11.642           0.843          18.020          12.658          18.099
  1580           5.777           1.380          11.647           0.848          18.127          12.765          18.206
  1590           5.780           1.380          11.652           0.853          18.234          12.872          18.312
  1600           5.783           1.380          11.657           0.858          18.341          12.979          18.418
  1610           5.785           1.380          11.662           0.863          18.448          13.086          18.525
  1620           5.788           1.380          11.667           0.868          18.555          13.193          18.632
  1630           5.790           1.380          11.672           0.873          18.662          13.300          18.738
  1640           5.793           1.380          11.677           0.878          18.769          13.407          18.845
  1650           5.795           1.380          11.681           0.883          18.876          13.514          18.952
  1660           5.798           1.380          11.686           0.888          18.983          13.621          19.058
  1670           5.800           1.380          11.690           0.893          19.091          13.729          19.165
  1680           5.802           1.380          11.695           0.898          19.198          13.836          19.272
  1690           5.804           1.380          11.699           0.903          19.305          13.943          19.379
  1700           5.807           1.379          11.703           0.908          19.413          14.051          19.486
  1710           5.809           1.379          11.707           0.913          19.520          14.158          19.593
  1720           5.811           1.379          11.711           0.918          19.628          14.266          19.700
  1730           5.813           1.379          11.715           0.923          19.735          14.373          19.807
  1740           5.815           1.379          11.719           0.928          19.843          14.481          19.914
  1750           5.817           1.379          11.723           0.933          19.950          14.588          20.021
  1760           5.819           1.379          11.727           0.938          20.058          14.696          20.128
  1770           5.821           1.379          11.731           0.943          20.166          14.804          20.236
  1780           5.823           1.379          11.735           0.948          20.273          14.911          20.343
  1790           5.825           1.379          11.738           0.953          20.381          15.019          20.450
  1800           5.827           1.379          11.742           0.958          20.489          15.127          20.558
  1810           5.829           1.379          11.745           0.963          20.596          15.235          20.665
  1820           5.831           1.379          11.749           0.968          20.704          15.343          20.772
  1830           5.833           1.379          11.752           0.973          20.812          15.450          20.880
  1840           5.834           1.379          11.756           0.978          20.920          15.558          20.987
  1850           5.836           1.379          11.759           0.983          21.028          15.666          21.095
  1860           5.838           1.379          11.762           0.988          21.136          15.774          21.202
  1870           5.840           1.379          11.765           0.993          21.244          15.882          21.310
  1880           5.841           1.379          11.769           0.998          21.352          15.990          21.418
  1890           5.843           1.379          11.772           1.003          21.460          16.098          21.525
  1900           5.844           1.379          11.775           1.008          21.568          16.206          21.633
  1910           5.846           1.379          11.778           1.013          21.676          16.314          21.741
  1920           5.848           1.379          11.781           1.018          21.784          16.422          21.849
  1930           5.849           1.379          11.784           1.023          21.892          16.531          21.956
  1940           5.851           1.379          11.787           1.028          22.000          16.639          22.064
  1950           5.852           1.379          11.789           1.033          22.109          16.747          22.172
  1960           5.854           1.379          11.792           1.038          22.217          16.855          22.280
  1970           5.855           1.379          11.795           1.044          22.325          16.963          22.388
  1980           5.857           1.379          11.798           1.049          22.433          17.072          22.496
  1990           5.858           1.379          11.800           1.054          22.542          17.180          22.604
  2000           5.859           1.379          11.803           1.059          22.650          17.288          22.712
  2010           5.861           1.379          11.806           1.064          22.758          17.397          22.820
  2020           5.862           1.379          11.808           1.069          22.867          17.505          22.928
  2030           5.863           1.379          11.811           1.074          22.975          17.613          23.036
  2040           5.865           1.379          11.813           1.079          23.083          17.722          23.144
  2050           5.866           1.379          11.816           1.084          23.192          17.830          23.252
  2060           5.867           1.379          11.818           1.089          23.300          17.939          23.360
  2070           5.868           1.379          11.820           1.094          23.409          18.047          23.468
  2080           5.870           1.379          11.823           1.099          23.517          18.156          23.577
  2090           5.871           1.379          11.825           1.104          23.626          18.264          23.685
  2100           5.872           1.379          11.827           1.109          23.734          18.373          23.793
  2110           5.873           1.379          11.830           1.114          23.843          18.481          23.901
  2120           5.875           1.379          11.832           1.119          23.951          18.590          24.010
  2130           5.876           1.379          11.834           1.124          24.060          18.699          24.118
  2140           5.877           1.379          11.836           1.129          24.169          18.807          24.226
  2150           5.878           1.378          11.838           1.135          24.277          18.916          24.335
  2160           5.879           1.378          11.840           1.140          24.386          19.024          24.443
  2170           5.880           1.378          11.842           1.145          24.494          19.133          24.552
  2180           5.881           1.378          11.844           1.150          24.603          19.242          24.660
  2190           5.882           1.378          11.846           1.155          24.712          19.351          24.768
  2200           5.883           1.378          11.848           1.160          24.821          19.459          24.877
  2210           5.884           1.378          11.850           1.165          24.929          19.568          24.985
  2220           5.885           1.378          11.852           1.170          25.038          19.677          25.094
  2230           5.886           1.378          11.854           1.175          25.147          19.786          25.202
  2240           5.887           1.378          11.856           1.180          25.256          19.894          25.311
  2250           5.888           1.378          11.858           1.185          25.365          20.003          25.420
  2260           5.889           1.378          11.860           1.190          25.473          20.112          25.528
  2270           5.890           1.378          11.862           1.195          25.582          20.221          25.637
  2280           5.891           1.378          11.863           1.200          25.691          20.330          25.745
  2290           5.892           1.378          11.865           1.206          25.800          20.439          25.854
  2300           5.893           1.378          11.867           1.211          25.909          20.548          25.963
  2310           5.894           1.378          11.869           1.216          26.018          20.657          26.071
  2320           5.895           1.378          11.870           1.221          26.127          20.766          26.180
  2330           5.896           1.378          11.872           1.226          26.236          20.875          26.289
  2340           5.897           1.378          11.874           1.231          26.345          20.983          26.397
  2350           5.898           1.378          11.875           1.236          26.454          21.092          26.506
  2360           5.898           1.378          11.877           1.241          26.563          21.201          26.615
  2370           5.899           1.378          11.879           1.246          26.672          21.311          26.724
  2380           5.900           1.378          11.880           1.251          26.781          21.420          26.833
  2390           5.901           1.378          11.882           1.256          26.890          21.529          26.941
  2400           5.902           1.378          11.883           1.261          26.999          21.638          27.050
  2410           5.903           1.378          11.885           1.266          27.108          21.747          27.159
  2420           5.903           1.378          11.886           1.272          27.217          21.856          27.268
  2430           5.904           1.378          11.888           1.277          27.326          21.965          27.377
  2440           5.905           1.378          11.889           1.282          27.435          22.074          27.486
  2450           5.906           1.378          11.891           1.287          27.544          22.183          27.595
  2460           5.906           1.378          11.892           1.292          27.653          22.292          27.704
  2470           5.907           1.378          11.894           1.297          27.763          22.401          27.813
  2480           5.908           1.378          11.895           1.302          27.872          22.511          27.922
  2490           5.909           1.378          11.896           1.307          27.981          22.620          28.030
  2500           5.909           1.378          11.898           1.312          28.090          22.729          28.139
  2510           5.910           1.378          11.899           1.317          28.199          22.838          28.248
  2520           5.911           1.378          11.900           1.322          28.308          22.947          28.357
  2530           5.911           1.378          11.902           1.328          28.418          23.057          28.467
  2540           5.912           1.378          11.903           1.333          28.527          23.166          28.576
  2550           5.913           1.378          11.904           1.338          28.636          23.275          28.685
  2560           5.913           1.378          11.906           1.343          28.745          23.384          28.794
  2570           5.914           1.378          11.907           1.348          28.855          23.494          28.903
  2580           5.915           1.378          11.908           1.353          28.964          23.603          29.012
  2590           5.915           1.378          11.909           1.358          29.073          23.712          29.121
  2600           5.916           1.378          11.911           1.363          29.183          23.822          29.230
  2610           5.917           1.378          11.912           1.368          29.292          23.931          29.339
  2620           5.917           1.378          11.913           1.373          29.401          24.040          29.448
  2630           5.918           1.378          11.914           1.379          29.511          24.150          29.558
  2640           5.919           1.378          11.915           1.384          29.620          24.259          29.667
  2650           5.919           1.378          11.916           1.389          29.729          24.368          29.776
  2660           5.920           1.378          11.918           1.394          29.839          24.478          29.885
  2670           5.920           1.378          11.919           1.399          29.948          24.587          29.994
  2680           5.921           1.378          11.920           1.404          30.057          24.696          30.103
  2690           5.922           1.378          11.921           1.409          30.167          24.806          30.213
  2700           5.922           1.378          11.922           1.414          30.276          24.915          30.322
  2710           5.923           1.378          11.923           1.419          30.386          25.025          30.431
  2720           5.923           1.378          11.924           1.424          30.495          25.134          30.540
  2730           5.924           1.378          11.925           1.430          30.605          25.244          30.650
  2740           5.924           1.378          11.926           1.435          30.714          25.353          30.759
  2750           5.925           1.378          11.927           1.440          30.823          25.462          30.868
  2760           5.925           1.378          11.928           1.445          30.933          25.572          30.978
  2770           5.926           1.378          11.929           1.450          31.042          25.681          31.087
  2780           5.926           1.378          11.930           1.455          31.152          25.791          31.196
  2790           5.927           1.378          11.931           1.460          31.261          25.900          31.306
  2800           5.928           1.378          11.932           1.465          31.371          26.010          31.415
  2810           5.928           1.378          11.933           1.470          31.480          26.119          31.524
  2820           5.929           1.378          11.934           1.476          31.590          26.229          31.634
  2830           5.929           1.378          11.935           1.481          31.699          26.339          31.743
  2840           5.930           1.378          11.936           1.486          31.809          26.448          31.852
  2850           5.930           1.378          11.937           1.491          31.919          26.558          31.962
  2860           5.931           1.378          11.938           1.496          32.028          26.667          32.071
  2870           5.931           1.378          11.939           1.501          32.138          26.777          32.181
  2880           5.931           1.378          11.940           1.506          32.247          26.886          32.290
  2890           5.932           1.378          11.941           1.511          32.357          26.996          32.399
  2900           5.932           1.378          11.941           1.516          32.466          27.106          32.509
  2910           5.933           1.378          11.942           1.522          32.576          27.215          32.618
  2920           5.933           1.378          11.943           1.527          32.686          27.325          32.728
  2930           5.934           1.378          11.944           1.532          32.795          27.434          32.837
  2940           5.934           1.378          11.945           1.537          32.905          27.544          32.947
  2950           5.935           1.378          11.946           1.542          33.014          27.654          33.056
  2960           5.935           1.378          11.947           1.547          33.124          27.763          33.166
  2970           5.936           1.378          11.947           1.552          33.234          27.873          33.275
  2980           5.936           1.378          11.948           1.557          33.343          27.983          33.385
  2990           5.936           1.378          11.949           1.562          33.453          28.092          33.494
  3000           5.937           1.378          11.950           1.568          33.563          28.202          33.604
  3010           5.937           1.378          11.951           1.573          33.672          28.312          33.713
  3020           5.938           1.378          11.951           1.578          33.782          28.421          33.823
  3030           5.938           1.378          11.952           1.583          33.892          28.531          33.932
  3040           5.938           1.378          11.953           1.588          34.001          28.641          34.042
  3050           5.939           1.378          11.954           1.593          34.111          28.750          34.152
  3060           5.939           1.378          11.954           1.598          34.221          28.860          34.261
  3070           5.940           1.378          11.955           1.603          34.331          28.970          34.371
  3080           5.940           1.378          11.956           1.608          34.440          29.079          34.480
  3090           5.940           1.378          11.957           1.614          34.550          29.189          34.590
  3100           5.941           1.378          11.957           1.619          34.660          29.299          34.700
  3110           5.941           1.378          11.958           1.624          34.770          29.409          34.809
  3120           5.942           1.378          11.959           1.629          34.879          29.518          34.919
  3130           5.942           1.378          11.959           1.634          34.989          29.628          35.028
  3140           5.942           1.378          11.960           1.639          35.099          29.738          35.138
  3150           5.943           1.378          11.961           1.644          35.209          29.848          35.248
  3160           5.943           1.378          11.962           1.649          35.318          29.958          35.357
  3170           5.943           1.378          11.962           1.655          35.428          30.067          35.467
  3180           5.944           1.378          11.963           1.660          35.538          30.177          35.577
  3190           5.944           1.378          11.964           1.665          35.648          30.287          35.686
  3200           5.944           1.378          11.964           1.670          35.757          30.397          35.796
  3210           5.945           1.378          11.965           1.675          35.867          30.507          35.906
  3220           5.945           1.378          11.966           1.680          35.977          30.616          36.015
  3230           5.945           1.378          11.966           1.685          36.087          30.726          36.125
  3240           5.946           1.378          11.967           1.690          36.197          30.836          36.235
  3250           5.946           1.378          11.967           1.696          36.307          30.946          36.344
  3260           5.946           1.378          11.968           1.701          36.416          31.056          36.454
  3270           5.947           1.378          11.969           1.706          36.526          31.166          36.564
  3280           5.947           1.378          11.969           1.711          36.636          31.275          36.674
  3290           5.947           1.378          11.970           1.716          36.746          31.385          36.783
  3300           5.948           1.378          11.970           1.721          36.856          31.495          36.893
  3310           5.948           1.378          11.971           1.726          36.966          31.605          37.003
  3320           5.948           1.378          11.972           1.731          37.076          31.715          37.113
  3330           5.949           1.378          11.972           1.737          37.185          31.825          37.222
  3340           5.949           1.378          11.973           1.742          37.295          31.935          37.332
  3350           5.949           1.378          11.973           1.747          37.405          32.044          37.442
  3360           5.950           1.378          11.974           1.752          37.515          32.154          37.552
  3370           5.950           1.378          11.975           1.757          37.625          32.264          37.662
  3380           5.950           1.378          11.975           1.762          37.735          32.374          37.771
  3390           5.950           1.378          11.976           1.767          37.845          32.484          37.881
  3400           5.951           1.378          11.976           1.772          37.955          32.594          37.991
  3410           5.951           1.378          11.977           1.778          38.065          32.704          38.101
  3420           5.951           1.378          11.977           1.783          38.174          32.814          38.211
  3430           5.952           1.377          11.978           1.788          38.284          32.924          38.320
  3440           5.952           1.377          11.978           1.793          38.394          33.034          38.430
  3450           5.952           1.377          11.979           1.798          38.504          33.144          38.540
  3460           5.952           1.377          11.979           1.803          38.614          33.254          38.650
  3470           5.953           1.377          11.980           1.808          38.724          33.363          38.760
  3480           5.953           1.377          11.980           1.813          38.834          33.473          38.870
  3490           5.953           1.377          11.981           1.819          38.944          33.583          38.979
  3500           5.953           1.377          11.981           1.824          39.054          33.693          39.089
  3510           5.954           1.377          11.982           1.829          39.164          33.803          39.199
  3520           5.954           1.377          11.982           1.834          39.274          33.913          39.309
  3530           5.954           1.377          11.983           1.839          39.384          34.023          39.419
  3540           5.954           1.377          11.983           1.844          39.494          34.133          39.529
  3550           5.955           1.377          11.984           1.849          39.604          34.243          39.639
  3560           5.955           1.377          11.984           1.855          39.714          34.353          39.748
  3570           5.955           1.377          11.985           1.860          39.824          34.463          39.858
  3580           5.955           1.377          11.985           1.865          39.934          34.573          39.968
  3590           5.956           1.377          11.986           1.870          40.044          34.683          40.078
  3600           5.956           1.377          11.986           1.875          40.154          34.793          40.188
  3610           5.956           1.377          11.987           1.880          40.264          34.903          40.298
  3620           5.956           1.377          11.987           1.885          40.374          35.013          40.408
  3630           5.957           1.377          11.988           1.890          40.484          35.123          40.518
  3640           5.957           1.377          11.988           1.896          40.594          35.233          40.628
  3650           5.957           1.377          11.988           1.901          40.704          35.343          40.738
  3660           5.957           1.377          11.989           1.906          40.814          35.453          40.848
  3670           5.958           1.377          11.989           1.911          40.924          35.563          40.958
  3680           5.958           1.377          11.990           1.916          41.034          35.673          41.068
  3690           5.958           1.377          11.990           1.921          41.144          35.783          41.177
  3700           5.958           1.377          11.991           1.926          41.254          35.893          41.287
  3710           5.959           1.377          11.991           1.932          41.364          36.004          41.397
  3720           5.959           1.377          11.991           1.937          41.474          36.114          41.507
  3730           5.959           1.377          11.992           1.942          41.584          36.224          41.617
  3740           5.959           1.377          11.992           1.947          41.694          36.334          41.727
  3750           5.959           1.377          11.993           1.952          41.804          36.444          41.837
  3760           5.960           1.377          11.993           1.957          41.914          36.554          41.947
  3770           5.960           1.377          11.994           1.962          42.025          36.664          42.057
  3780           5.960           1.377          11.994           1.967          42.135          36.774          42.167
  3790           5.960           1.377          11.994           1.973          42.245          36.884          42.277
  3800           5.960           1.377          11.995           1.978          42.355          36.994          42.387
  3810           5.961           1.377          11.995           1.983          42.465          37.104          42.497
  3820           5.961           1.377          11.995           1.988          42.575          37.214          42.607
  3830           5.961           1.377          11.996           1.993          42.685          37.324          42.717
  3840           5.961           1.377          11.996           1.998          42.795          37.434          42.827
  3850           5.961           1.377          11.997           2.003          42.905          37.545          42.937
  3860           5.962           1.377          11.997           2.009          43.015          37.655          43.047
  3870           5.962           1.377          11.997           2.014          43.125          37.765          43.157
  3880           5.962           1.377          11.998           2.019          43.236          37.875          43.267
  3890           5.962           1.377          11.998           2.024          43.346          37.985          43.377
  3900           5.962           1.377          11.998           2.029          43.456          38.095          43.487
  3910           5.963           1.377          11.999           2.034          43.566          38.205          43.597
  3920           5.963           1.377          11.999           2.039          43.676          38.315          43.707
  3930           5.963           1.377          12.000           2.045          43.786          38.426          43.817
  3940           5.963           1.377          12.000           2.050          43.896          38.536          43.928
  3950           5.963           1.377          12.000           2.055          44.006          38.646          44.038
  3960           5.964           1.377          12.001           2.060          44.117          38.756          44.148
  3970           5.964           1.377          12.001           2.065          44.227          38.866          44.258
  3980           5.964           1.377          12.001           2.070          44.337          38.976          44.368
  3990           5.964           1.377          12.002           2.075          44.447          39.086          44.478
  4000           5.964           1.377          12.002           2.081          44.557          39.196          44.588
  4010           5.964           1.377          12.002           2.086          44.667          39.307          44.698
  4020           5.965           1.377          12.003           2.091          44.777          39.417          44.808
  4030           5.965           1.377          12.003           2.096          44.888          39.527          44.918
  4040           5.965           1.377          12.003           2.101          44.998          39.637          45.028
  4050           5.965           1.377          12.004           2.106          45.108          39.747          45.138
  4060           5.965           1.377          12.004           2.111          45.218          39.857          45.248
  4070           5.966           1.377          12.004           2.116          45.328          39.968          45.358
  4080           5.966           1.377          12.005           2.122          45.438          40.078          45.469
  4090           5.966           1.377          12.005           2.127          45.549          40.188          45.579
  4100           5.966           1.377          12.005           2.132          45.659          40.298          45.689
  4110           5.966           1.377          12.006           2.137          45.769          40.408          45.799
  4120           5.966           1.377          12.006           2.142          45.879          40.519          45.909
  4130           5.967           1.377          12.006           2.147          45.989          40.629          46.019
  4140           5.967           1.377          12.006           2.152          46.099          40.739          46.129
  4150           5.967           1.377          12.007           2.158          46.210          40.849          46.239
  4160           5.967           1.377          12.007           2.163          46.320          40.959          46.349
  4170           5.967           1.377          12.007           2.168          46.430          41.069          46.460
  4180           5.967           1.377          12.008           2.173          46.540          41.180          46.570
  4190           5.967           1.377          12.008           2.178          46.650          41.290          46.680
  4200           5.968           1.377          12.008           2.183          46.761          41.400          46.790
  4210           5.968           1.377          12.009           2.188          46.871          41.510          46.900
  4220           5.968           1.377          12.009           2.194          46.981          41.621          47.010
  4230           5.968           1.377          12.009           2.199          47.091          41.731          47.120
  4240           5.968           1.377          12.009           2.204          47.202          41.841          47.231
  4250           5.968           1.377          12.010           2.209          47.312          41.951          47.341
  4260           5.969           1.377          12.010           2.214          47.422          42.061          47.451
  4270           5.969           1.377          12.010           2.219          47.532          42.172          47.561
  4280           5.969           1.377          12.010           2.224          47.642          42.282          47.671
  4290           5.969           1.377          12.011           2.230          47.753          42.392          47.781
  4300           5.969           1.377          12.011           2.235          47.863          42.502          47.891
  4310           5.969           1.377          12.011           2.240          47.973          42.613          48.002
  4320           5.969           1.377          12.012           2.245          48.083          42.723          48.112
  4330           5.970           1.377          12.012           2.250          48.194          42.833          48.222
  4340           5.970           1.377          12.012           2.255          48.304          42.943          48.332
  4350           5.970           1.377          12.012           2.260          48.414          43.053          48.442
  4360           5.970           1.377          12.013           2.266          48.524          43.164          48.553
  4370           5.970           1.377          12.013           2.271          48.635          43.274          48.663
  4380           5.970           1.377          12.013           2.276          48.745          43.384          48.773
  4390           5.970           1.377          12.013           2.281          48.855          43.495          48.883
  4400           5.970           1.377          12.014           2.286          48.965          43.605          48.993
  4410           5.971           1.377          12.014           2.291          49.076          43.715          49.103
  4420           5.971           1.377          12.014           2.296          49.186          43.825          49.214
  4430           5.971           1.377          12.014           2.302          49.296          43.936          49.324
  4440           5.971           1.377          12.015           2.307          49.406          44.046          49.434
  4450           5.971           1.377          12.015           2.312          49.517          44.156          49.544
  4460           5.971           1.377          12.015           2.317          49.627          44.266          49.654
  4470           5.971           1.377          12.015           2.322          49.737          44.377          49.765
  4480           5.972           1.377          12.016           2.327          49.847          44.487          49.875
  4490           5.972           1.377          12.016           2.333          49.958          44.597          49.985
  4500           5.972           1.377          12.016           2.338          50.068          44.707          50.095
  4510           5.972           1.377          12.016           2.343          50.178          44.818          50.206
  4520           5.972           1.377          12.017           2.348          50.289          44.928          50.316
  4530           5.972           1.377          12.017           2.353          50.399          45.038          50.426
  4540           5.972           1.377          12.017           2.358          50.509          45.149          50.536
  4550           5.972           1.377          12.017           2.363          50.619          45.259          50.646
  4560           5.973           1.377          12.018           2.369          50.730          45.369          50.757
  4570           5.973           1.377          12.018           2.374          50.840          45.479          50.867
  4580           5.973           1.377          12.018           2.379          50.950          45.590          50.977
  4590           5.973           1.377          12.018           2.384          51.061          45.700          51.087
  4600           5.973           1.377          12.018           2.389          51.171          45.810          51.198
  4610           5.973           1.377          12.019           2.394          51.281          45.921          51.308
  4620           5.973           1.377          12.019           2.399          51.391          46.031          51.418
  4630           5.973           1.377          12.019           2.405          51.502          46.141          51.528
  4640           5.973           1.377          12.019           2.410          51.612          46.252          51.639
  4650           5.974           1.377          12.019           2.415          51.722          46.362          51.749
  4660           5.974           1.377          12.020           2.420          51.833          46.472          51.859
  4670           5.974           1.377          12.020           2.425          51.943          46.583          51.969
  4680           5.974           1.377          12.020           2.430          52.053          46.693          52.080
  4690           5.974           1.377          12.020           2.435          52.164          46.803          52.190
  4700           5.974           1.377          12.021           2.441          52.274          46.913          52.300
  4710           5.974           1.377          12.021           2.446          52.384          47.024          52.410
  4720           5.974           1.377          12.021           2.451          52.495          47.134          52.521
  4730           5.974           1.377          12.021           2.456          52.605          47.244          52.631
  4740           5.975           1.377          12.021           2.461          52.715          47.355          52.741
  4750           5.975           1.377          12.022           2.466          52.826          47.465          52.852
  4760           5.975           1.377          12.022           2.471          52.936          47.575          52.962
  4770           5.975           1.377          12.022           2.477          53.046          47.686          53.072
  4780           5.975           1.377          12.022           2.482          53.157          47.796          53.182
  4790           5.975           1.377          12.022           2.487          53.267          47.906          53.293
  4800           5.975           1.377          12.023           2.492          53.377          48.017          53.403
  4810           5.975           1.377          12.023           2.497          53.488          48.127          53.513
  4820           5.975           1.377          12.023           2.502          53.598          48.237          53.623
  4830           5.975           1.377          12.023           2.508          53.708          48.348          53.734
  4840           5.976           1.377          12.023           2.513          53.819          48.458          53.844
  4850           5.976           1.377          12.024           2.518          53.929          48.568          53.954
  4860           5.976           1.377          12.024           2.523          54.039          48.679          54.065
  4870           5.976           1.377          12.024           2.528          54.150          48.789          54.175
  4880           5.976           1.377          12.024           2.533          54.260          48.900          54.285
  4890           5.976           1.377          12.024           2.538          54.370          49.010          54.396
  4900           5.976           1.377          12.024           2.544          54.481          49.120          54.506
  4910           5.976           1.377          12.025           2.549          54.591          49.231          54.616
  4920           5.976           1.377          12.025           2.554          54.701          49.341          54.726
  4930           5.976           1.377          12.025           2.559          54.812          49.451          54.837
  4940           5.977           1.377          12.025           2.564          54.922          49.562          54.947
  4950           5.977           1.377          12.025           2.569          55.033          49.672          55.057
  4960           5.977           1.377          12.026           2.574          55.143          49.782          55.168
  4970           5.977           1.377          12.026           2.580          55.253          49.893          55.278
  4980           5.977           1.377          12.026           2.585          55.364          50.003          55.388
  4990           5.977           1.377          12.026           2.590          55.474          50.114          55.499
  5000           5.977           1.377          12.026           2.595          55.584          50.224          55.609
  5010           5.977           1.377          12.026           2.600          55.695          50.334          55.719
  5020           5.977           1.377          12.027           2.605          55.805          50.445          55.830
  5030           5.977           1.377          12.027           2.611          55.915          50.555          55.940
  5040           5.977           1.377          12.027           2.616          56.026          50.665          56.050
  5050           5.978           1.377          12.027           2.621          56.136          50.776          56.161
  5060           5.978           1.377          12.027           2.626          56.247          50.886          56.271
  5070           5.978           1.377          12.027           2.631          56.357          50.997          56.381
  5080           5.978           1.377          12.028           2.636          56.467          51.107          56.492
  5090           5.978           1.377          12.028           2.641          56.578          51.217          56.602
  5100           5.978           1.377          12.028           2.647          56.688          51.328          56.712
  5110           5.978           1.377          12.028           2.652          56.799          51.438          56.823
  5120           5.978           1.377          12.028           2.657          56.909          51.548          56.933
  5130           5.978           1.377          12.028           2.662          57.019          51.659          57.043
  5140           5.978           1.377          12.029           2.667          57.130          51.769          57.154
  5150           5.978           1.377          12.029           2.672          57.240          51.880          57.264
  5160           5.979           1.377          12.029           2.678          57.351          51.990          57.374
  5170           5.979           1.377          12.029           2.683          57.461          52.100          57.485
  5180           5.979           1.377          12.029           2.688          57.571          52.211          57.595
  5190           5.979           1.377          12.029           2.693          57.682          52.321          57.705
  5200           5.979           1.377          12.030           2.698          57.792          52.432          57.816
  5210           5.979           1.377          12.030           2.703          57.903          52.542          57.926
  5220           5.979           1.377          12.030           2.708          58.013          52.652          58.036
  5230           5.979           1.377          12.030           2.714          58.123          52.763          58.147
  5240           5.979           1.377          12.030           2.719          58.234          52.873          58.257
  5250           5.979           1.377          12.030           2.724          58.344          52.984          58.368
  5260           5.979           1.377          12.030           2.729          58.455          53.094          58.478
  5270           5.979           1.377          12.031           2.734          58.565          53.205          58.588
  5280           5.979           1.377          12.031           2.739          58.675          53.315          58.699
  5290           5.980           1.377          12.031           2.744          58.786          53.425          58.809
  5300           5.980           1.377          12.031           2.750          58.896          53.536          58.919
  5310           5.980           1.377          12.031           2.755          59.007          53.646          59.030
  5320           5.980           1.377          12.031           2.760          59.117          53.757          59.140
  5330           5.980           1.377          12.031           2.765          59.227          53.867          59.251
  5340           5.980           1.377          12.032           2.770          59.338          53.977          59.361
  5350           5.980           1.377          12.032           2.775          59.448          54.088          59.471
  5360           5.980           1.377          12.032           2.781          59.559          54.198          59.582
  5370           5.980           1.377          12.032           2.786          59.669          54.309          59.692
  5380           5.980           1.377          12.032           2.791          59.780          54.419          59.802
  5390           5.980           1.377          12.032           2.796          59.890          54.530          59.913
  5400           5.980           1.377          12.032           2.801          60.000          54.640          60.023
  5410           5.980           1.377          12.033           2.806          60.111          54.750          60.134
  5420           5.981           1.377          12.033           2.811          60.221          54.861          60.244
  5430           5.981           1.377          12.033           2.817          60.332          54.971          60.354
  5440           5.981           1.377          12.033           2.822          60.442          55.082          60.465
  5450           5.981           1.377          12.033           2.827          60.553          55.192          60.575
  5460           5.981           1.377          12.033           2.832          60.663          55.303          60.686
  5470           5.981           1.377          12.033           2.837          60.773          55.413          60.796
  5480           5.981           1.377          12.033           2.842          60.884          55.523          60.906
  5490           5.981           1.377          12.034           2.848          60.994          55.634          61.017
  5500           5.981           1.377          12.034           2.853          61.105          55.744          61.127
  5510           5.981           1.377          12.034           2.858          61.215          55.855          61.238
  5520           5.981           1.377          12.034           2.863          61.326          55.965          61.348
  5530           5.981           1.377          12.034           2.868          61.436          56.076          61.458
  5540           5.981           1.377          12.034           2.873          61.547          56.186          61.569
  5550           5.981           1.377          12.034           2.878          61.657          56.297          61.679
  5560           5.981           1.377          12.035           2.884          61.767          56.407          61.790
  5570           5.982           1.377          12.035           2.889          61.878          56.517          61.900
  5580           5.982           1.377          12.035           2.894          61.988          56.628          62.010
  5590           5.982           1.377          12.035           2.899          62.099          56.738          62.121
  5600           5.982           1.377          12.035           2.904          62.209          56.849          62.231
  5610           5.982           1.377          12.035           2.909          62.320          56.959          62.342
  5620           5.982           1.377          12.035           2.915          62.430          57.070          62.452
  5630           5.982           1.377          12.035           2.920          62.541          57.180          62.562
  5640           5.982           1.377          12.036           2.925          62.651          57.291          62.673
  5650           5.982           1.377          12.036           2.930          62.762          57.401          62.783
  5660           5.982           1.377          12.036           2.935          62.872          57.512          62.894
  5670           5.982           1.377          12.036           2.940          62.982          57.622          63.004
  5680           5.982           1.377          12.036           2.945          63.093          57.732          63.115
  5690           5.982           1.377          12.036           2.951          63.203          57.843          63.225
  5700           5.982           1.377          12.036           2.956          63.314          57.953          63.335
  5710           5.982           1.377          12.036           2.961          63.424          58.064          63.446
  5720           5.983           1.377          12.036           2.966          63.535          58.174          63.556
  5730           5.983           1.377          12.037           2.971          63.645          58.285          63.667
  5740           5.983           1.377          12.037           2.976          63.756          58.395          63.777
  5750           5.983           1.377          12.037           2.982          63.866          58.506          63.888
  5760           5.983           1.377          12.037           2.987          63.977          58.616          63.998
  5770           5.983           1.377          12.037           2.992          64.087          58.727          64.108
  5780           5.983           1.377          12.037           2.997          64.198          58.837          64.219
  5790           5.983           1.377          12.037           3.002          64.308          58.948          64.329
  5800           5.983           1.377          12.037           3.007          64.419          59.058          64.440
  5810           5.983           1.377          12.037           3.013          64.529          59.169          64.550
  5820           5.983           1.377          12.038           3.018          64.639          59.279          64.661
  5830           5.983           1.377          12.038           3.023          64.750          59.390          64.771
  5840           5.983           1.377          12.038           3.028          64.860          59.500          64.881
  5850           5.983           1.377          12.038           3.033          64.971          59.610          64.992
  5860           5.983           1.377          12.038           3.038          65.081          59.721          65.102
  5870           5.983           1.377          12.038           3.043          65.192          59.831          65.213
  5880           5.983           1.377          12.038           3.049          65.302          59.942          65.323
  5890           5.983           1.377          12.038           3.054          65.413          60.052          65.434
  5900           5.984           1.377          12.038           3.059          65.523          60.163          65.544
  5910           5.984           1.377          12.039           3.064          65.634          60.273          65.655
  5920           5.984           1.377          12.039           3.069          65.744          60.384          65.765
  5930           5.984           1.377          12.039           3.074          65.855          60.494          65.875
  5940           5.984           1.377          12.039           3.080          65.965          60.605          65.986
  5950           5.984           1.377          12.039           3.085          66.076          60.715          66.096
  5960           5.984           1.377          12.039           3.090          66.186          60.826          66.207
  5970           5.984           1.377          12.039           3.095          66.297          60.936          66.317
  5980           5.984           1.377          12.039           3.100          66.407          61.047          66.428
  5990           5.984           1.377          12.039           3.105          66.518          61.157          66.538
  6000           5.984           1.377          12.039           3.110          66.628          61.268          66.649
  6010           5.984           1.377          12.040           3.116          66.739          61.378          66.759
  6020           5.984           1.377          12.040           3.121          66.849          61.489          66.870
  6030           5.984           1.377          12.040           3.126          66.960          61.599          66.980
  6040           5.984           1.377          12.040           3.131          67.070          61.710          67.091
  6050           5.984           1.377          12.040           3.136          67.181          61.820          67.201
  6060           5.984           1.377          12.040           3.141          67.291          61.931          67.311
  6070           5.984           1.377          12.040           3.147          67.402          62.041          67.422
  6080           5.985           1.377          12.040           3.152          67.512          62.152          67.532
  6090           5.985           1.377          12.040           3.157          67.623          62.262          67.643
  6100           5.985           1.377          12.040           3.162          67.733          62.373          67.753
  6110           5.985           1.377          12.041           3.167          67.844          62.483          67.864
  6120           5.985           1.377          12.041           3.172          67.954          62.594          67.974
  6130           5.985           1.377          12.041           3.178          68.065          62.704          68.085
  6140           5.985           1.377          12.041           3.183          68.175          62.815          68.195
  6150           5.985           1.377          12.041           3.188          68.286          62.925          68.306
  6160           5.985           1.377          12.041           3.193          68.396          63.036          68.416
  6170           5.985           1.377          12.041           3.198          68.507          63.146          68.527
  6180           5.985           1.377          12.041           3.203          68.617          63.257          68.637
  6190           5.985           1.377          12.041           3.208          68.728          63.367          68.748
  6200           5.985           1.377          12.041           3.214          68.838          63.478          68.858
  6210           5.985           1.377          12.041           3.219          68.949          63.588          68.969
  6220           5.985           1.377          12.042           3.224          69.059          63.699          69.079
  6230           5.985           1.377          12.042           3.229          69.170          63.809          69.190
  6240           5.985           1.377          12.042           3.234          69.280          63.920          69.300
  6250           5.985           1.377          12.042           3.239          69.391          64.030          69.410
  6260           5.985           1.377          12.042           3.245          69.501          64.141          69.521
  6270           5.985           1.377          12.042           3.250          69.612          64.251          69.631
  6280           5.985           1.377          12.042           3.255          69.722          64.362          69.742
  6290           5.986           1.377          12.042           3.260          69.833          64.472          69.852
  6300           5.986           1.377          12.042           3.265          69.943          64.583          69.963
  6310           5.986           1.377          12.042           3.270          70.054          64.693          70.073
  6320           5.986           1.377          12.042           3.276          70.164          64.804          70.184
  6330           5.986           1.377          12.043           3.281          70.275          64.915          70.294
  6340           5.986           1.377          12.043           3.286          70.385          65.025          70.405
  6350           5.986           1.377          12.043           3.291          70.496          65.136          70.515
  6360           5.986           1.377          12.043           3.296          70.607          65.246          70.626
  6370           5.986           1.377          12.043           3.301          70.717          65.357          70.736
  6380           5.986           1.377          12.043           3.306          70.828          65.467          70.847
  6390           5.986           1.377          12.043           3.312          70.938          65.578          70.957
  6400           5.986           1.377          12.043           3.317          71.049          65.688          71.068
  6410           5.986           1.377          12.043           3.322          71.159          65.799          71.178
  6420           5.986           1.377          12.043           3.327          71.270          65.909          71.289
  6430           5.986           1.377          12.043           3.332          71.380          66.020          71.399
  6440           5.986           1.377          12.043           3.337          71.491          66.130          71.510
  6450           5.986           1.377          12.044           3.343          71.601          66.241          71.620
  6460           5.986           1.377          12.044           3.348          71.712          66.351          71.731
  6470           5.986           1.377          12.044           3.353          71.822          66.462          71.841
  6480           5.986           1.377          12.044           3.358          71.933          66.572          71.952
  6490           5.986           1.377          12.044           3.363          72.043          66.683          72.062
  6500           5.986           1.377          12.044           3.368          72.154          66.794          72.173
  6510           5.986           1.377          12.044           3.374          72.264          66.904          72.283
  6520           5.987           1.377          12.044           3.379          72.375          67.015          72.394
  6530           5.987           1.377          12.044           3.384          72.486          67.125          72.504
  6540           5.987           1.377          12.044           3.389          72.596          67.236          72.615
  6550           5.987           1.377          12.044           3.394          72.707          67.346          72.725
  6560           5.987           1.377          12.044           3.399          72.817          67.457          72.836
  6570           5.987           1.377          12.044           3.404          72.928          67.567          72.946
  6580           5.987           1.377          12.045           3.410          73.038          67.678          73.057
  6590           5.987           1.377          12.045           3.415          73.149          67.788          73.167
  6600           5.987           1.377          12.045           3.420          73.259          67.899          73.278
  6610           5.987           1.377          12.045           3.425          73.370          68.009          73.388
  6620           5.987           1.377          12.045           3.430          73.480          68.120          73.499
  6630           5.987           1.377          12.045           3.435          73.591          68.231          73.609
  6640           5.987           1.377          12.045           3.441          73.701          68.341          73.720
  6650           5.987           1.377          12.045           3.446          73.812          68.452          73.830
  6660           5.987           1.377          12.045           3.451          73.923          68.562          73.941
  6670           5.987           1.377          12.045           3.456          74.033          68.673          74.052
  6680           5.987           1.377          12.045           3.461          74.144          68.783          74.162
  6690           5.987           1.377          12.045           3.466          74.254          68.894          74.273
  6700           5.987           1.377          12.045           3.472          74.365          69.004          74.383
  6710           5.987           1.377          12.045           3.477          74.475          69.115          74.494
  6720           5.987           1.377          12.046           3.482          74.586          69.225          74.604
  6730           5.987           1.377          12.046           3.487          74.696          69.336          74.715
  6740           5.987           1.377          12.046           3.492          74.807          69.447          74.825
  6750           5.987           1.377          12.046           3.497          74.917          69.557          74.936
  6760           5.987           1.377          12.046           3.503          75.028          69.668          75.046
  6770           5.988           1.377          12.046           3.508          75.139          69.778          75.157
  6780           5.988           1.377          12.046           3.513          75.249          69.889          75.267
  6790           5.988           1.377          12.046           3.518          75.360          69.999          75.378
  6800           5.988           1.377          12.046           3.523          75.470          70.110          75.488
  6810           5.988           1.377          12.046           3.528          75.581          70.220          75.599
  6820           5.988           1.377          12.046           3.533          75.691          70.331          75.709
  6830           5.988           1.377          12.046           3.539          75.802          70.442          75.820
  6840           5.988           1.377          12.046           3.544          75.912          70.552          75.930
  6850           5.988           1.377          12.046           3.549          76.023          70.663          76.041
  6860           5.988           1.377          12.047           3.554          76.134          70.773          76.152
  6870           5.988           1.377          12.047           3.559          76.244          70.884          76.262
  6880           5.988           1.377          12.047           3.564          76.355          70.994          76.373
  6890           5.988           1.377          12.047           3.570          76.465          71.105          76.483
  6900           5.988           1.377          12.047           3.575          76.576          71.215          76.594
  6910           5.988           1.377          12.047           3.580          76.686          71.326          76.704
  6920           5.988           1.377          12.047           3.585          76.797          71.437          76.815
  6930           5.988           1.377          12.047           3.590          76.908          71.547          76.925
  6940           5.988           1.377          12.047           3.595          77.018          71.658          77.036
  6950           5.988           1.377          12.047           3.601          77.129          71.768          77.146
  6960           5.988           1.377          12.047           3.606          77.239          71.879          77.257
  6970           5.988           1.377          12.047           3.611          77.350          71.989          77.367
  6980           5.988           1.377          12.047           3.616          77.460          72.100          77.478
  6990           5.988           1.377          12.047           3.621          77.571          72.211          77.588
  7000           5.988           1.377          12.047           3.626          77.681          72.321          77.699
  7010           5.988           1.377          12.048           3.632          77.792          72.432          77.810
  7020           5.988           1.377          12.048           3.637          77.903          72.542          77.920
  7030           5.988           1.377          12.048           3.642          78.013          72.653          78.031
  7040           5.988           1.377          12.048           3.647          78.124          72.763          78.141
  7050           5.988           1.377          12.048           3.652          78.234          72.874          78.252
  7060           5.989           1.377          12.048           3.657          78.345          72.984          78.362
  7070           5.989           1.377          12.048           3.662          78.455          73.095          78.473
  7080           5.989           1.377          12.048           3.668          78.566          73.206          78.583
  7090           5.989           1.377          12.048           3.673          78.677          73.316          78.694
  7100           5.989           1.377          12.048           3.678          78.787          73.427          78.804
  7110           5.989           1.377          12.048           3.683          78.898          73.537          78.915
  7120           5.989           1.377          12.048           3.688          79.008          73.648          79.026
  7130           5.989           1.377          12.048           3.693          79.119          73.758          79.136
  7140           5.989           1.377          12.048           3.699          79.229          73.869          79.247
  7150           5.989           1.377          12.048           3.704          79.340          73.980          79.357
  7160           5.989           1.377          12.048           3.709          79.451          74.090          79.468
  7170           5.989           1.377          12.048           3.714          79.561          74.201          79.578
  7180           5.989           1.377          12.049           3.719          79.672          74.311          79.689
  7190           5.989           1.377          12.049           3.724          79.782          74.422          79.799
  7200           5.989           1.377          12.049           3.730          79.893          74.533          79.910
  7210           5.989           1.377          12.049           3.735          80.003          74.643          80.021
  7220           5.989           1.377          12.049           3.740          80.114          74.754          80.131
  7230           5.989           1.377          12.049           3.745          80.225          74.864          80.242
  7240           5.989           1.377          12.049           3.750          80.335          74.975          80.352
  7250           5.989           1.377          12.049           3.755          80.446          75.085          80.463
  7260           5.989           1.377          12.049           3.761          80.556          75.196          80.573
  7270           5.989           1.377          12.049           3.766          80.667          75.307          80.684
  7280           5.989           1.377          12.049           3.771          80.778          75.417          80.794
  7290           5.989           1.377          12.049           3.776          80.888          75.528          80.905
  7300           5.989           1.377          12.049           3.781          80.999          75.638          81.016
  7310           5.989           1.377          12.049           3.786          81.109          75.749          81.126
  7320           5.989           1.377          12.049           3.791          81.220          75.859          81.237
  7330           5.989           1.377          12.049           3.797          81.330          75.970          81.347
  7340           5.989           1.377          12.049           3.802          81.441          76.081          81.458
  7350           5.989           1.377          12.050           3.807          81.552          76.191          81.568
  7360           5.989           1.377          12.050           3.812          81.662          76.302          81.679
  7370           5.989           1.377          12.050           3.817          81.773          76.412          81.789
  7380           5.989           1.377          12.050           3.822          81.883          76.523          81.900
  7390           5.990           1.377          12.050           3.828          81.994          76.634          82.011
  7400           5.990           1.377          12.050           3.833          82.105          76.744          82.121
  7410           5.990           1.377          12.050           3.838          82.215          76.855          82.232
  7420           5.990           1.377          12.050           3.843          82.326          76.965          82.342
  7430           5.990           1.377          12.050           3.848          82.436          77.076          82.453
  7440           5.990           1.377          12.050           3.853          82.547          77.187          82.563
  7450           5.990           1.377          12.050           3.859          82.658          77.297          82.674
  7460           5.990           1.377          12.050           3.864          82.768          77.408          82.785
  7470           5.990           1.377          12.050           3.869          82.879          77.518          82.895
  7480           5.990           1.377          12.050           3.874          82.989          77.629          83.006
  7490           5.990           1.377          12.050           3.879          83.100          77.739          83.116
  7500           5.990           1.377          12.050           3.884          83.210          77.850          83.227
  7510           5.990           1.377          12.050           3.890          83.321          77.961          83.337
  7520           5.990           1.377          12.050           3.895          83.432          78.071          83.448
  7530           5.990           1.377          12.050           3.900          83.542          78.182          83.559
  7540           5.990           1.377          12.051           3.905          83.653          78.292          83.669
  7550           5.990           1.377          12.051           3.910          83.763          78.403          83.780
  7560           5.990           1.377          12.051           3.915          83.874          78.514          83.890
  7570           5.990           1.377          12.051           3.921          83.985          78.624          84.001
  7580           5.990           1.377          12.051           3.926          84.095          78.735          84.111
  7590           5.990           1.377          12.051           3.931          84.206          78.845          84.222
  7600           5.990           1.377          12.051           3.936          84.316          78.956          84.333
  7610           5.990           1.377          12.051           3.941          84.427          79.067          84.443
  7620           5.990           1.377          12.051           3.946          84.538          79.177          84.554
  7630           5.990           1.377          12.051           3.951          84.648          79.288          84.664
  7640           5.990           1.377          12.051           3.957          84.759          79.398          84.775
  7650           5.990           1.377          12.051           3.962          84.869          79.509          84.885
  7660           5.990           1.377          12.051           3.967          84.980          79.620          84.996
  7670           5.990           1.377          12.051           3.972          85.091          79.730          85.107
  7680           5.990           1.377          12.051           3.977          85.201          79.841          85.217
  7690           5.990           1.377          12.051           3.982          85.312          79.951          85.328
  7700           5.990           1.377          12.051           3.988          85.422          80.062          85.438
  7710           5.990           1.377          12.051           3.993          85.533          80.173          85.549
  7720           5.990           1.377          12.051           3.998          85.644          80.283          85.660
  7730           5.990           1.377          12.051           4.003          85.754          80.394          85.770
  7740           5.990           1.377          12.051           4.008          85.865          80.504          85.881
  7750           5.990           1.377          12.052           4.013          85.975          80.615          85.991
  7760           5.990           1.377          12.052           4.019          86.086          80.726          86.102
  7770           5.991           1.377          12.052           4.024          86.197          80.836          86.212
  7780           5.991           1.377          12.052           4.029          86.307          80.947          86.323
  7790           5.991           1.377          12.052           4.034          86.418          81.057          86.434
  7800           5.991           1.377          12.052           4.039          86.528          81.168          86.544
  7810           5.991           1.377          12.052           4.044          86.639          81.279          86.655
  7820           5.991           1.377          12.052           4.050          86.750          81.389          86.765
  7830           5.991           1.377          12.052           4.055          86.860          81.500          86.876
  7840           5.991           1.377          12.052           4.060          86.971          81.611          86.987
  7850           5.991           1.377          12.052           4.065          87.081          81.721          87.097
  7860           5.991           1.377          12.052           4.070          87.192          81.832          87.208
  7870           5.991           1.377          12.052           4.075          87.303          81.942          87.318
  7880           5.991           1.377          12.052           4.081          87.413          82.053          87.429
  7890           5.991           1.377          12.052           4.086          87.524          82.164          87.540
  7900           5.991           1.377          12.052           4.091          87.635          82.274          87.650
  7910           5.991           1.377          12.052           4.096          87.745          82.385          87.761
  7920           5.991           1.377          12.052           4.101          87.856          82.495          87.871
  7930           5.991           1.377          12.052           4.106          87.966          82.606          87.982
  7940           5.991           1.377          12.052           4.112          88.077          82.717          88.092
  7950           5.991           1.377          12.052           4.117          88.188          82.827          88.203
  7960           5.991           1.377          12.052           4.122          88.298          82.938          88.314
  7970           5.991           1.377          12.053           4.127          88.409          83.048          88.424
  7980           5.991           1.377          12.053           4.132          88.519          83.159          88.535
  7990           5.991           1.377          12.053           4.137          88.630          83.270          88.645
  8000           5.991           1.377          12.053           4.143          88.741          83.380          88.756
  8010           5.991           1.377          12.053           4.148          88.851          83.491          88.867
  8020           5.991           1.377          12.053           4.153          88.962          83.602          88.977
  8030           5.991           1.377          12.053           4.158          89.072          83.712          89.088
  8040           5.991           1.377          12.053           4.163          89.183          83.823          89.198
  8050           5.991           1.377          12.053           4.168          89.294          83.933          89.309
  8060           5.991           1.377          12.053           4.173          89.404          84.044          89.420
  8070           5.991           1.377          12.053           4.179          89.515          84.155          89.530
  8080           5.991           1.377          12.053           4.184          89.626          84.265          89.641
  8090           5.991           1.377          12.053           4.189          89.736          84.376          89.751
  8100           5.991           1.377          12.053           4.194          89.847          84.486          89.862
  8110           5.991           1.377          12.053           4.199          89.957          84.597          89.973
  8120           5.991           1.377          12.053           4.204          90.068          84.708          90.083
  8130           5.991           1.377          12.053           4.210          90.179          84.818          90.194
  8140           5.991           1.377          12.053           4.215          90.289          84.929          90.304
  8150           5.991           1.377          12.053           4.220          90.400          85.040          90.415
  8160           5.991           1.377          12.053           4.225          90.511          85.150          90.526
  8170           5.991           1.377          12.053           4.230          90.621          85.261          90.636
  8180           5.991           1.377          12.053           4.235          90.732          85.371          90.747
  8190           5.991           1.377          12.053           4.241          90.842          85.482          90.857
  8200           5.991           1.377          12.053           4.246          90.953          85.593          90.968
  8210           5.991           1.377          12.053           4.251          91.064          85.703          91.079
  8220           5.992           1.377          12.054           4.256          91.174          85.814          91.189
  8230           5.992           1.377          12.054           4.261          91.285          85.925          91.300
  8240           5.992           1.377          12.054           4.266          91.396          86.035          91.410
  8250           5.992           1.377          12.054           4.272          91.506          86.146          91.521
  8260           5.992           1.377          12.054           4.277          91.617          86.256          91.632
  8270           5.992           1.377          12.054           4.282          91.727          86.367          91.742
  8280           5.992           1.377          12.054           4.287          91.838          86.478          91.853
  8290           5.992           1.377          12.054           4.292          91.949          86.588          91.963
  8300           5.992           1.377          12.054           4.297          92.059          86.699          92.074
  8310           5.992           1.377          12.054           4.303          92.170          86.810          92.185
  8320           5.992           1.377          12.054           4.308          92.280          86.920          92.295
  8330           5.992           1.377          12.054           4.313          92.391          87.031          92.406
  8340           5.992           1.377          12.054           4.318          92.502          87.141          92.516
  8350           5.992           1.377          12.054           4.323          92.612          87.252          92.627
  8360           5.992           1.377          12.054           4.328          92.723          87.363          92.738
  8370           5.992           1.377          12.054           4.334          92.834          87.473          92.848
  8380           5.992           1.377          12.054           4.339          92.944          87.584          92.959
  8390           5.992           1.377          12.054           4.344          93.055          87.695          93.070
  8400           5.992           1.377          12.054           4.349          93.166          87.805          93.180
  8410           5.992           1.377          12.054           4.354          93.276          87.916          93.291
  8420           5.992           1.377          12.054           4.359          93.387          88.026          93.401
  8430           5.992           1.377          12.054           4.365          93.497          88.137          93.512
  8440           5.992           1.377          12.054           4.370          93.608          88.248          93.623
  8450           5.992           1.377          12.054           4.375          93.719          88.358          93.733
  8460           5.992           1.377          12.054           4.380          93.829          88.469          93.844
  8470           5.992           1.377          12.054           4.385          93.940          88.580          93.954
  8480           5.992           1.377          12.054           4.390          94.051          88.690          94.065
  8490           5.992           1.377          12.055           4.395          94.161          88.801          94.176
  8500           5.992           1.377          12.055           4.401          94.272          88.911          94.286
  8510           5.992           1.377          12.055           4.406          94.382          89.022          94.397
  8520           5.992           1.377          12.055           4.411          94.493          89.133          94.508
  8530           5.992           1.377          12.055           4.416          94.604          89.243          94.618
  8540           5.992           1.377          12.055           4.421          94.714          89.354          94.729
  8550           5.992           1.377          12.055           4.426          94.825          89.465          94.839
  8560           5.992           1.377          12.055           4.432          94.936          89.575          94.950
  8570           5.992           1.377          12.055           4.437          95.046          89.686          95.061
  8580           5.992           1.377          12.055           4.442          95.157          89.797          95.171
  8590           5.992           1.377          12.055           4.447          95.268          89.907          95.282
  8600           5.992           1.377          12.055           4.452          95.378          90.018          95.392
  8610           5.992           1.377          12.055           4.457          95.489          90.128          95.503
  8620           5.992           1.377          12.055           4.463          95.599          90.239          95.614
  8630           5.992           1.377          12.055           4.468          95.710          90.350          95.724
  8640           5.992           1.377          12.055           4.473          95.821          90.460          95.835
  8650           5.992           1.377          12.055           4.478          95.931          90.571          95.946
  8660           5.992           1.377          12.055           4.483          96.042          90.682          96.056
  8670           5.992           1.377          12.055           4.488          96.153          90.792          96.167
  8680           5.992           1.377          12.055           4.494          96.263          90.903          96.277
  8690           5.992           1.377          12.055           4.499          96.374          91.014          96.388
  8700           5.992           1.377          12.055           4.504          96.485          91.124          96.499
  8710           5.992           1.377          12.055           4.509          96.595          91.235          96.609
  8720           5.992           1.377          12.055           4.514          96.706          91.345          96.720
  8730           5.992           1.377          12.055           4.519          96.816          91.456          96.831
  8740           5.992           1.377          12.055           4.525          96.927          91.567          96.941
  8750           5.993           1.377          12.055           4.530          97.038          91.677          97.052
  8760           5.993           1.377          12.055           4.535          97.148          91.788          97.162
  8770           5.993           1.377          12.055           4.540          97.259          91.899          97.273
  8780           5.993           1.377          12.056           4.545          97.370          92.009          97.384
  8790           5.993           1.377          12.056           4.550          97.480          92.120          97.494
  8800           5.993           1.377          12.056           4.556          97.591          92.231          97.605
  8810           5.993           1.377          12.056           4.561          97.702          92.341          97.716
  8820           5.993           1.377          12.056           4.566          97.812          92.452          97.826
  8830           5.993           1.377          12.056           4.571          97.923          92.562          97.937
  8840           5.993           1.377          12.056           4.576          98.033          92.673          98.047
  8850           5.993           1.377          12.056           4.581          98.144          92.784          98.158
  8860           5.993           1.377          12.056           4.587          98.255          92.894          98.269
  8870           5.993           1.377          12.056           4.592          98.365          93.005          98.379
  8880           5.993           1.377          12.056           4.597          98.476          93.116          98.490
  8890           5.993           1.377          12.056           4.602          98.587          93.226          98.601
  8900           5.993           1.377          12.056           4.607          98.697          93.337          98.711
  8910           5.993           1.377          12.056           4.612          98.808          93.448          98.822
  8920           5.993           1.377          12.056           4.618          98.919          93.558          98.932
  8930           5.993           1.377          12.056           4.623          99.029          93.669          99.043
  8940           5.993           1.377          12.056           4.628          99.140          93.780          99.154
  8950           5.993           1.377          12.056           4.633          99.251          93.890          99.264
  8960           5.993           1.377          12.056           4.638          99.361          94.001          99.375
  8970           5.993           1.377          12.056           4.643          99.472          94.112          99.486
  8980           5.993           1.377          12.056           4.649          99.583          94.222          99.596
  8990           5.993           1.377          12.056           4.654          99.693          94.333          99.707
  9000           5.993           1.377          12.056           4.659          99.804          94.443          99.817
  9010           5.993           1.377          12.056           4.664          99.914          94.554          99.928
  9020           5.993           1.377          12.056           4.669         100.025          94.665         100.039
  9030           5.993           1.377          12.056           4.674         100.136          94.775         100.149
  9040           5.993           1.377          12.056           4.680         100.246          94.886         100.260
  9050           5.993           1.377          12.056           4.685         100.357          94.997         100.371
  9060           5.993           1.377          12.056           4.690         100.468          95.107         100.481
  9070           5.993           1.377          12.056           4.695         100.578          95.218         100.592
  9080           5.993           1.377          12.056           4.700         100.689          95.329         100.703
  9090           5.993           1.377          12.056           4.705         100.800          95.439         100.813
  9100           5.993           1.377          12.056           4.711         100.910          95.550         100.924
  9110           5.993           1.377          12.057           4.716         101.021          95.661         101.034
  9120           5.993           1.377          12.057           4.721         101.132          95.771         101.145
  9130           5.993           1.377          12.057           4.726         101.242          95.882         101.256
  9140           5.993           1.377          12.057           4.731         101.353          95.993         101.366
  9150           5.993           1.377          12.057           4.736         101.464          96.103         101.477
  9160           5.993           1.377          12.057           4.741         101.574          96.214         101.588
  9170           5.993           1.377          12.057           4.747         101.685          96.324         101.698
  9180           5.993           1.377          12.057           4.752         101.795          96.435         101.809
  9190           5.993           1.377          12.057           4.757         101.906          96.546         101.920
  9200           5.993           1.377          12.057           4.762         102.017          96.656         102.030
  9210           5.993           1.377          12.057           4.767         102.127          96.767         102.141
  9220           5.993           1.377          12.057           4.772         102.238          96.878         102.251
  9230           5.993           1.377          12.057           4.778         102.349          96.988         102.362
  9240           5.993           1.377          12.057           4.783         102.459          97.099         102.473
  9250           5.993           1.377          12.057           4.788         102.570          97.210         102.583
  9260           5.993           1.377          12.057           4.793         102.681          97.320         102.694
  9270           5.993           1.377          12.057           4.798         102.791          97.431         102.805
  9280           5.993           1.377          12.057           4.803         102.902          97.542         102.915
  9290           5.993           1.377          12.057           4.809         103.013          97.652         103.026
  9300           5.993           1.377          12.057           4.814         103.123          97.763         103.137
  9310           5.993           1.377          12.057           4.819         103.234          97.874         103.247
  9320           5.993           1.377          12.057           4.824         103.345          97.984         103.358
  9330           5.993           1.377          12.057           4.829         103.455          98.095         103.468
  9340           5.993           1.377          12.057           4.834         103.566          98.206         103.579
  9350           5.993           1.377          12.057           4.840         103.677          98.316         103.690
  9360           5.993           1.377          12.057           4.845         103.787          98.427         103.800
  9370           5.993           1.377          12.057           4.850         103.898          98.538         103.911
  9380           5.993           1.377          12.057           4.855         104.009          98.648         104.022
  9390           5.993           1.377          12.057           4.860         104.119          98.759         104.132
  9400           5.994           1.377          12.057           4.865         104.230          98.870         104.243
  9410           5.994           1.377          12.057           4.871         104.341          98.980         104.354
  9420           5.994           1.377          12.057           4.876         104.451          99.091         104.464
  9430           5.994           1.377          12.057           4.881         104.562          99.202         104.575
  9440           5.994           1.377          12.057           4.886         104.673          99.312         104.686
  9450           5.994           1.377          12.057           4.891         104.783          99.423         104.796
  9460           5.994           1.377          12.057           4.896         104.894          99.533         104.907
  9470           5.994           1.377          12.057           4.902         105.004          99.644         105.017
  9480           5.994           1.377          12.058           4.907         105.115          99.755         105.128
  9490           5.994           1.377          12.058           4.912         105.226          99.865         105.239
  9500           5.994           1.377          12.058           4.917         105.336          99.976         105.349
  9510           5.994           1.377          12.058           4.922         105.447         100.087         105.460
  9520           5.994           1.377          12.058           4.927         105.558         100.197         105.571
  9530           5.994           1.377          12.058           4.933         105.668         100.308         105.681
  9540           5.994           1.377          12.058           4.938         105.779         100.419         105.792
  9550           5.994           1.377          12.058           4.943         105.890         100.529         105.903
  9560           5.994           1.377          12.058           4.948         106.000         100.640         106.013
  9570           5.994           1.377          12.058           4.953         106.111         100.751         106.124
  9580           5.994           1.377          12.058           4.958         106.222         100.861         106.235
  9590           5.994           1.377          12.058           4.964         106.332         100.972         106.345
  9600           5.994           1.377          12.058           4.969         106.443         101.083         106.456
  9610           5.994           1.377          12.058           4.974         106.554         101.193         106.567
  9620           5.994           1.377          12.058           4.979         106.664         101.304         106.677
  9630           5.994           1.377          12.058           4.984         106.775         101.415         106.788
  9640           5.994           1.377          12.058           4.989         106.886         101.525         106.898
  9650           5.994           1.377          12.058           4.995         106.996         101.636         107.009
  9660           5.994           1.377          12.058           5.000         107.107         101.747         107.120
  9670           5.994           1.377          12.058           5.005         107.218         101.857         107.230
  9680           5.994           1.377          12.058           5.010         107.328         101.968         107.341
  9690           5.994           1.377          12.058           5.015         107.439         102.079         107.452
  9700           5.994           1.377          12.058           5.020         107.550         102.189         107.562
  9710           5.994           1.377          12.058           5.026         107.660         102.300         107.673
  9720           5.994           1.377          12.058           5.031         107.771         102.411         107.784
  9730           5.994           1.377          12.058           5.036         107.882         102.521         107.894
  9740           5.994           1.377          12.058           5.041         107.992         102.632         108.005
  9750           5.994           1.377          12.058           5.046         108.103         102.743         108.116
  9760           5.994           1.377          12.058           5.051         108.214         102.853         108.226
  9770           5.994           1.377          12.058           5.057         108.324         102.964         108.337
  9780           5.994           1.377          12.058           5.062         108.435         103.075         108.448
  9790           5.994           1.377          12.058           5.067         108.546         103.185         108.558
  9800           5.994           1.377          12.058           5.072         108.656         103.296         108.669
  9810           5.994           1.377          12.058           5.077         108.767         103.407         108.780
  9820           5.994           1.377          12.058           5.082         108.878         103.517         108.890
  9830           5.994           1.377          12.058           5.088         108.988         103.628         109.001
  9840           5.994           1.377          12.058           5.093         109.099         103.739         109.112
  9850           5.994           1.377          12.058           5.098         109.210         103.849         109.222
  9860           5.994           1.377          12.058           5.103         109.320         103.960         109.333
  9870           5.994           1.377          12.058           5.108         109.431         104.071         109.443
  9880           5.994           1.377          12.058           5.113         109.542         104.181         109.554
  9890           5.994           1.377          12.058           5.119         109.652         104.292         109.665
  9900           5.994           1.377          12.059           5.124         109.763         104.403         109.775
  9910           5.994           1.377          12.059           5.129         109.874         104.513         109.886
  9920           5.994           1.377          12.059           5.134         109.984         104.624         109.997
  9930           5.994           1.377          12.059           5.139         110.095         104.735         110.107
  9940           5.994           1.377          12.059           5.144         110.206         104.845         110.218
  9950           5.994           1.377          12.059           5.150         110.316         104.956         110.329
  9960           5.994           1.377          12.059           5.155         110.427         105.067         110.439
  9970           5.994           1.377          12.059           5.160         110.538         105.177         110.550
  9980           5.994           1.377          12.059           5.165         110.648         105.283         110.661
  9990           5.994           1.377          12.059           5.170         110.759         105.413         110.771
 10000           5.994           1.377          12.059           5.175         110.870         105.454         110.882
