#   T(K)    C_v(k_B/fu)        Gamma     alpha_v*10^6(K^-1)   E_th(eV)                       P_th(GPa)
#                                                                         ----------------------------------------------
#                                                                          {sum G_i.U_iV}  {int G.C_v/V dT}    {G.U/V}
# ----------------------------------------------------------------------------------------------------------------------
    10           0.007           0.362           0.003           0.170           0.837           0.000           0.246
    20           0.131           0.691           0.127           0.170           0.838           0.000           0.469
    30           0.443           0.862           0.537           0.170           0.838           0.002           0.586
    40           0.845           0.943           1.121           0.171           0.840           0.004           0.644
    50           1.256           1.010           1.784           0.172           0.844           0.009           0.693
    60           1.655           1.076           2.504           0.173           0.849           0.015           0.744
    70           2.043           1.139           3.271           0.175           0.856           0.023           0.794
    80           2.425           1.193           4.065           0.177           0.865           0.033           0.841
    90           2.801           1.236           4.866           0.179           0.876           0.045           0.882
   100           3.171           1.268           5.654           0.181           0.889           0.059           0.918
   110           3.532           1.292           6.414           0.184           0.904           0.074           0.950
   120           3.880           1.308           7.134           0.188           0.920           0.092           0.979
   130           4.212           1.319           7.810           0.191           0.939           0.111           1.006
   140           4.526           1.326           8.438           0.195           0.958           0.131           1.031
   150           4.822           1.330           9.018           0.199           0.980           0.153           1.055
   160           5.099           1.332           9.551           0.203           1.003           0.177           1.080
   170           5.357           1.333          10.039           0.208           1.026           0.201           1.104
   180           5.596           1.333          10.485           0.212           1.052           0.227           1.129
   190           5.817           1.332          10.893           0.217           1.078           0.254           1.155
   200           6.021           1.331          11.265           0.222           1.105           0.281           1.181
   210           6.210           1.329          11.605           0.228           1.133           0.310           1.208
   220           6.384           1.328          11.915           0.233           1.162           0.339           1.235
   230           6.544           1.326          12.199           0.239           1.191           0.369           1.263
   240           6.692           1.324          12.458           0.244           1.221           0.399           1.291
   250           6.828           1.323          12.696           0.250           1.252           0.430           1.320
   260           6.954           1.321          12.914           0.256           1.283           0.462           1.350
   270           7.070           1.319          13.114           0.262           1.315           0.494           1.380
   280           7.178           1.318          13.298           0.268           1.347           0.526           1.411
   290           7.277           1.316          13.467           0.275           1.380           0.559           1.442
   300           7.370           1.315          13.624           0.281           1.413           0.593           1.474
   310           7.455           1.314          13.768           0.287           1.447           0.626           1.506
   320           7.534           1.313          13.902           0.294           1.481           0.660           1.538
   330           7.608           1.311          14.025           0.300           1.515           0.695           1.571
   340           7.677           1.310          14.140           0.307           1.549           0.729           1.604
   350           7.741           1.309          14.247           0.313           1.584           0.764           1.637
   360           7.801           1.308          14.346           0.320           1.619           0.799           1.671
   370           7.856           1.307          14.438           0.327           1.654           0.834           1.705
   380           7.909           1.307          14.524           0.334           1.690           0.870           1.739
   390           7.957           1.306          14.605           0.341           1.725           0.906           1.774
   400           8.003           1.305          14.680           0.347           1.761           0.942           1.809
   410           8.046           1.304          14.751           0.354           1.797           0.978           1.844
   420           8.086           1.304          14.817           0.361           1.833           1.014           1.879
   430           8.124           1.303          14.879           0.368           1.870           1.050           1.914
   440           8.160           1.302          14.937           0.375           1.906           1.087           1.950
   450           8.193           1.302          14.992           0.382           1.943           1.124           1.986
   460           8.225           1.301          15.044           0.389           1.979           1.160           2.021
   470           8.255           1.301          15.092           0.396           2.016           1.197           2.057
   480           8.283           1.300          15.138           0.404           2.053           1.234           2.094
   490           8.310           1.300          15.182           0.411           2.090           1.271           2.130
   500           8.335           1.299          15.223           0.418           2.127           1.309           2.166
   510           8.359           1.299          15.262           0.425           2.165           1.346           2.203
   520           8.382           1.298          15.298           0.432           2.202           1.383           2.240
   530           8.404           1.298          15.333           0.440           2.240           1.421           2.277
   540           8.424           1.298          15.366           0.447           2.277           1.458           2.313
   550           8.444           1.297          15.398           0.454           2.315           1.496           2.350
   560           8.462           1.297          15.428           0.461           2.352           1.534           2.388
   570           8.480           1.297          15.456           0.469           2.390           1.572           2.425
   580           8.496           1.296          15.483           0.476           2.428           1.610           2.462
   590           8.512           1.296          15.509           0.483           2.466           1.647           2.499
   600           8.528           1.296          15.534           0.491           2.504           1.685           2.537
   610           8.542           1.296          15.557           0.498           2.542           1.724           2.574
   620           8.556           1.295          15.579           0.505           2.580           1.762           2.612
   630           8.570           1.295          15.601           0.513           2.618           1.800           2.650
   640           8.582           1.295          15.621           0.520           2.656           1.838           2.687
   650           8.594           1.295          15.641           0.528           2.695           1.876           2.725
   660           8.606           1.294          15.659           0.535           2.733           1.915           2.763
   670           8.617           1.294          15.677           0.542           2.771           1.953           2.801
   680           8.628           1.294          15.694           0.550           2.810           1.991           2.839
   690           8.638           1.294          15.711           0.557           2.848           2.030           2.877
   700           8.648           1.294          15.727           0.565           2.886           2.068           2.915
   710           8.658           1.294          15.742           0.572           2.925           2.107           2.953
   720           8.667           1.293          15.756           0.580           2.963           2.145           2.991
   730           8.675           1.293          15.770           0.587           3.002           2.184           3.029
   740           8.684           1.293          15.784           0.595           3.041           2.222           3.068
   750           8.692           1.293          15.797           0.602           3.079           2.261           3.106
   760           8.700           1.293          15.809           0.610           3.118           2.300           3.144
   770           8.707           1.293          15.821           0.617           3.157           2.338           3.182
   780           8.714           1.292          15.833           0.625           3.195           2.377           3.221
   790           8.721           1.292          15.844           0.632           3.234           2.416           3.259
   800           8.728           1.292          15.855           0.640           3.273           2.455           3.298
   810           8.735           1.292          15.865           0.647           3.312           2.494           3.336
   820           8.741           1.292          15.875           0.655           3.350           2.532           3.375
   830           8.747           1.292          15.884           0.662           3.389           2.571           3.413
   840           8.753           1.292          15.894           0.670           3.428           2.610           3.452
   850           8.758           1.292          15.903           0.677           3.467           2.649           3.491
   860           8.764           1.292          15.911           0.685           3.506           2.688           3.529
   870           8.769           1.292          15.920           0.692           3.545           2.727           3.568
   880           8.774           1.291          15.928           0.700           3.584           2.766           3.607
   890           8.779           1.291          15.936           0.707           3.623           2.805           3.645
   900           8.784           1.291          15.943           0.715           3.662           2.844           3.684
   910           8.788           1.291          15.951           0.723           3.701           2.883           3.723
   920           8.793           1.291          15.958           0.730           3.740           2.922           3.762
   930           8.797           1.291          15.965           0.738           3.779           2.961           3.800
   940           8.801           1.291          15.971           0.745           3.818           3.000           3.839
   950           8.805           1.291          15.978           0.753           3.857           3.039           3.878
   960           8.809           1.291          15.984           0.761           3.896           3.078           3.917
   970           8.813           1.291          15.990           0.768           3.935           3.117           3.956
   980           8.817           1.291          15.996           0.776           3.974           3.156           3.995
   990           8.821           1.291          16.002           0.783           4.013           3.196           4.034
  1000           8.824           1.291          16.007           0.791           4.053           3.235           4.073
  1010           8.827           1.290          16.013           0.799           4.092           3.274           4.112
  1020           8.831           1.290          16.018           0.806           4.131           3.313           4.151
  1030           8.834           1.290          16.023           0.814           4.170           3.352           4.190
  1040           8.837           1.290          16.028           0.821           4.209           3.391           4.229
  1050           8.840           1.290          16.033           0.829           4.248           3.431           4.268
  1060           8.843           1.290          16.038           0.837           4.288           3.470           4.307
  1070           8.846           1.290          16.042           0.844           4.327           3.509           4.346
  1080           8.849           1.290          16.047           0.852           4.366           3.548           4.385
  1090           8.851           1.290          16.051           0.859           4.405           3.588           4.424
  1100           8.854           1.290          16.055           0.867           4.445           3.627           4.463
  1110           8.857           1.290          16.059           0.875           4.484           3.666           4.502
  1120           8.859           1.290          16.063           0.882           4.523           3.705           4.541
  1130           8.862           1.290          16.067           0.890           4.563           3.745           4.580
  1140           8.864           1.290          16.071           0.898           4.602           3.784           4.620
  1150           8.866           1.290          16.074           0.905           4.641           3.823           4.659
  1160           8.869           1.290          16.078           0.913           4.680           3.863           4.698
  1170           8.871           1.290          16.082           0.921           4.720           3.902           4.737
  1180           8.873           1.290          16.085           0.928           4.759           3.941           4.776
  1190           8.875           1.290          16.088           0.936           4.799           3.981           4.815
  1200           8.877           1.290          16.092           0.943           4.838           4.020           4.855
  1210           8.879           1.290          16.095           0.951           4.877           4.059           4.894
  1220           8.881           1.289          16.098           0.959           4.917           4.099           4.933
  1230           8.883           1.289          16.101           0.966           4.956           4.138           4.972
  1240           8.885           1.289          16.104           0.974           4.995           4.178           5.012
  1250           8.887           1.289          16.107           0.982           5.035           4.217           5.051
  1260           8.888           1.289          16.109           0.989           5.074           4.256           5.090
  1270           8.890           1.289          16.112           0.997           5.114           4.296           5.129
  1280           8.892           1.289          16.115           1.005           5.153           4.335           5.169
  1290           8.893           1.289          16.117           1.012           5.192           4.375           5.208
  1300           8.895           1.289          16.120           1.020           5.232           4.414           5.247
  1310           8.897           1.289          16.123           1.028           5.271           4.454           5.287
  1320           8.898           1.289          16.125           1.035           5.311           4.493           5.326
  1330           8.900           1.289          16.127           1.043           5.350           4.532           5.365
  1340           8.901           1.289          16.130           1.051           5.390           4.572           5.405
  1350           8.903           1.289          16.132           1.058           5.429           4.611           5.444
  1360           8.904           1.289          16.134           1.066           5.469           4.651           5.483
  1370           8.905           1.289          16.136           1.074           5.508           4.690           5.523
  1380           8.907           1.289          16.139           1.081           5.547           4.730           5.562
  1390           8.908           1.289          16.141           1.089           5.587           4.769           5.601
  1400           8.909           1.289          16.143           1.097           5.626           4.809           5.641
  1410           8.911           1.289          16.145           1.104           5.666           4.848           5.680
  1420           8.912           1.289          16.147           1.112           5.705           4.888           5.720
  1430           8.913           1.289          16.149           1.120           5.745           4.927           5.759
  1440           8.914           1.289          16.150           1.128           5.784           4.967           5.798
  1450           8.915           1.289          16.152           1.135           5.824           5.006           5.838
  1460           8.917           1.289          16.154           1.143           5.863           5.046           5.877
  1470           8.918           1.289          16.156           1.151           5.903           5.085           5.917
  1480           8.919           1.289          16.158           1.158           5.942           5.125           5.956
  1490           8.920           1.289          16.159           1.166           5.982           5.164           5.996
  1500           8.921           1.289          16.161           1.174           6.022           5.204           6.035
  1510           8.922           1.289          16.163           1.181           6.061           5.243           6.074
  1520           8.923           1.289          16.164           1.189           6.101           5.283           6.114
  1530           8.924           1.289          16.166           1.197           6.140           5.322           6.153
  1540           8.925           1.289          16.167           1.204           6.180           5.362           6.193
  1550           8.926           1.289          16.169           1.212           6.219           5.402           6.232
  1560           8.927           1.289          16.170           1.220           6.259           5.441           6.272
  1570           8.928           1.289          16.172           1.227           6.298           5.481           6.311
  1580           8.929           1.289          16.173           1.235           6.338           5.520           6.351
  1590           8.930           1.289          16.175           1.243           6.377           5.560           6.390
  1600           8.930           1.289          16.176           1.251           6.417           5.599           6.430
  1610           8.931           1.289          16.177           1.258           6.457           5.639           6.469
  1620           8.932           1.289          16.179           1.266           6.496           5.678           6.509
  1630           8.933           1.289          16.180           1.274           6.536           5.718           6.548
  1640           8.934           1.289          16.181           1.281           6.575           5.758           6.588
  1650           8.935           1.289          16.183           1.289           6.615           5.797           6.627
  1660           8.935           1.289          16.184           1.297           6.654           5.837           6.667
  1670           8.936           1.288          16.185           1.304           6.694           5.876           6.706
  1680           8.937           1.288          16.186           1.312           6.734           5.916           6.746
  1690           8.938           1.288          16.187           1.320           6.773           5.956           6.785
  1700           8.938           1.288          16.189           1.328           6.813           5.995           6.825
  1710           8.939           1.288          16.190           1.335           6.852           6.035           6.864
  1720           8.940           1.288          16.191           1.343           6.892           6.074           6.904
  1730           8.940           1.288          16.192           1.351           6.932           6.114           6.943
  1740           8.941           1.288          16.193           1.358           6.971           6.154           6.983
  1750           8.942           1.288          16.194           1.366           7.011           6.193           7.022
  1760           8.942           1.288          16.195           1.374           7.050           6.233           7.062
  1770           8.943           1.288          16.196           1.381           7.090           6.272           7.102
  1780           8.944           1.288          16.197           1.389           7.130           6.312           7.141
  1790           8.944           1.288          16.198           1.397           7.169           6.352           7.181
  1800           8.945           1.288          16.199           1.405           7.209           6.391           7.220
  1810           8.946           1.288          16.200           1.412           7.249           6.431           7.260
  1820           8.946           1.288          16.201           1.420           7.288           6.471           7.299
  1830           8.947           1.288          16.202           1.428           7.328           6.510           7.339
  1840           8.947           1.288          16.203           1.435           7.367           6.550           7.378
  1850           8.948           1.288          16.204           1.443           7.407           6.589           7.418
  1860           8.948           1.288          16.205           1.451           7.447           6.629           7.458
  1870           8.949           1.288          16.205           1.459           7.486           6.669           7.497
  1880           8.950           1.288          16.206           1.466           7.526           6.708           7.537
  1890           8.950           1.288          16.207           1.474           7.566           6.748           7.576
  1900           8.951           1.288          16.208           1.482           7.605           6.788           7.616
  1910           8.951           1.288          16.209           1.489           7.645           6.827           7.656
  1920           8.952           1.288          16.210           1.497           7.685           6.867           7.695
  1930           8.952           1.288          16.210           1.505           7.724           6.907           7.735
  1940           8.953           1.288          16.211           1.513           7.764           6.946           7.774
  1950           8.953           1.288          16.212           1.520           7.804           6.986           7.814
  1960           8.954           1.288          16.213           1.528           7.843           7.026           7.854
  1970           8.954           1.288          16.213           1.536           7.883           7.065           7.893
  1980           8.954           1.288          16.214           1.543           7.923           7.105           7.933
  1990           8.955           1.288          16.215           1.551           7.962           7.145           7.972
  2000           8.955           1.288          16.215           1.559           8.002           7.184           8.012
  2010           8.956           1.288          16.216           1.567           8.042           7.224           8.052
  2020           8.956           1.288          16.217           1.574           8.081           7.264           8.091
  2030           8.957           1.288          16.218           1.582           8.121           7.303           8.131
  2040           8.957           1.288          16.218           1.590           8.161           7.343           8.170
  2050           8.958           1.288          16.219           1.597           8.200           7.383           8.210
  2060           8.958           1.288          16.220           1.605           8.240           7.422           8.250
  2070           8.958           1.288          16.220           1.613           8.280           7.462           8.289
  2080           8.959           1.288          16.221           1.621           8.319           7.502           8.329
  2090           8.959           1.288          16.221           1.628           8.359           7.541           8.369
  2100           8.960           1.288          16.222           1.636           8.399           7.581           8.408
  2110           8.960           1.288          16.223           1.644           8.438           7.621           8.448
  2120           8.960           1.288          16.223           1.651           8.478           7.660           8.487
  2130           8.961           1.288          16.224           1.659           8.518           7.700           8.527
  2140           8.961           1.288          16.224           1.667           8.557           7.740           8.567
  2150           8.961           1.288          16.225           1.675           8.597           7.779           8.606
  2160           8.962           1.288          16.226           1.682           8.637           7.819           8.646
  2170           8.962           1.288          16.226           1.690           8.676           7.859           8.686
  2180           8.962           1.288          16.227           1.698           8.716           7.898           8.725
  2190           8.963           1.288          16.227           1.706           8.756           7.938           8.765
  2200           8.963           1.288          16.228           1.713           8.795           7.978           8.805
  2210           8.963           1.288          16.228           1.721           8.835           8.018           8.844
  2220           8.964           1.288          16.229           1.729           8.875           8.057           8.884
  2230           8.964           1.288          16.229           1.736           8.915           8.097           8.924
  2240           8.964           1.288          16.230           1.744           8.954           8.137           8.963
  2250           8.965           1.288          16.230           1.752           8.994           8.176           9.003
  2260           8.965           1.288          16.231           1.760           9.034           8.216           9.043
  2270           8.965           1.288          16.231           1.767           9.073           8.256           9.082
  2280           8.966           1.288          16.232           1.775           9.113           8.295           9.122
  2290           8.966           1.288          16.232           1.783           9.153           8.335           9.162
  2300           8.966           1.288          16.233           1.791           9.192           8.375           9.201
  2310           8.967           1.288          16.233           1.798           9.232           8.415           9.241
  2320           8.967           1.288          16.234           1.806           9.272           8.454           9.281
  2330           8.967           1.288          16.234           1.814           9.312           8.494           9.320
  2340           8.967           1.288          16.234           1.821           9.351           8.534           9.360
  2350           8.968           1.288          16.235           1.829           9.391           8.573           9.400
  2360           8.968           1.288          16.235           1.837           9.431           8.613           9.439
  2370           8.968           1.288          16.236           1.845           9.470           8.653           9.479
  2380           8.968           1.288          16.236           1.852           9.510           8.693           9.519
  2390           8.969           1.288          16.237           1.860           9.550           8.732           9.558
  2400           8.969           1.288          16.237           1.868           9.590           8.772           9.598
  2410           8.969           1.288          16.237           1.876           9.629           8.812           9.638
  2420           8.969           1.288          16.238           1.883           9.669           8.851           9.677
  2430           8.970           1.288          16.238           1.891           9.709           8.891           9.717
  2440           8.970           1.288          16.239           1.899           9.748           8.931           9.757
  2450           8.970           1.288          16.239           1.906           9.788           8.971           9.796
  2460           8.970           1.288          16.239           1.914           9.828           9.010           9.836
  2470           8.971           1.288          16.240           1.922           9.868           9.050           9.876
  2480           8.971           1.288          16.240           1.930           9.907           9.090           9.915
  2490           8.971           1.288          16.240           1.937           9.947           9.129           9.955
  2500           8.971           1.288          16.241           1.945           9.987           9.169           9.995
  2510           8.972           1.288          16.241           1.953          10.027           9.209          10.035
  2520           8.972           1.288          16.242           1.961          10.066           9.249          10.074
  2530           8.972           1.288          16.242           1.968          10.106           9.288          10.114
  2540           8.972           1.288          16.242           1.976          10.146           9.328          10.154
  2550           8.972           1.288          16.243           1.984          10.185           9.368          10.193
  2560           8.973           1.288          16.243           1.991          10.225           9.408          10.233
  2570           8.973           1.288          16.243           1.999          10.265           9.447          10.273
  2580           8.973           1.288          16.244           2.007          10.305           9.487          10.312
  2590           8.973           1.288          16.244           2.015          10.344           9.527          10.352
  2600           8.974           1.288          16.244           2.022          10.384           9.566          10.392
  2610           8.974           1.288          16.245           2.030          10.424           9.606          10.432
  2620           8.974           1.288          16.245           2.038          10.464           9.646          10.471
  2630           8.974           1.288          16.245           2.046          10.503           9.686          10.511
  2640           8.974           1.288          16.245           2.053          10.543           9.725          10.551
  2650           8.975           1.288          16.246           2.061          10.583           9.765          10.590
  2660           8.975           1.288          16.246           2.069          10.622           9.805          10.630
  2670           8.975           1.288          16.246           2.077          10.662           9.845          10.670
  2680           8.975           1.288          16.247           2.084          10.702           9.884          10.710
  2690           8.975           1.288          16.247           2.092          10.742           9.924          10.749
  2700           8.975           1.288          16.247           2.100          10.781           9.964          10.789
  2710           8.976           1.288          16.248           2.107          10.821          10.004          10.829
  2720           8.976           1.288          16.248           2.115          10.861          10.043          10.868
  2730           8.976           1.288          16.248           2.123          10.901          10.083          10.908
  2740           8.976           1.288          16.248           2.131          10.940          10.123          10.948
  2750           8.976           1.288          16.249           2.138          10.980          10.163          10.988
  2760           8.977           1.288          16.249           2.146          11.020          10.202          11.027
  2770           8.977           1.288          16.249           2.154          11.060          10.242          11.067
  2780           8.977           1.288          16.249           2.162          11.099          10.282          11.107
  2790           8.977           1.288          16.250           2.169          11.139          10.322          11.146
  2800           8.977           1.288          16.250           2.177          11.179          10.361          11.186
  2810           8.977           1.288          16.250           2.185          11.219          10.401          11.226
  2820           8.977           1.288          16.250           2.193          11.258          10.441          11.266
  2830           8.978           1.288          16.251           2.200          11.298          10.481          11.305
  2840           8.978           1.288          16.251           2.208          11.338          10.520          11.345
  2850           8.978           1.288          16.251           2.216          11.378          10.560          11.385
  2860           8.978           1.288          16.251           2.224          11.417          10.600          11.424
  2870           8.978           1.288          16.252           2.231          11.457          10.640          11.464
  2880           8.978           1.288          16.252           2.239          11.497          10.679          11.504
  2890           8.979           1.288          16.252           2.247          11.537          10.719          11.544
  2900           8.979           1.288          16.252           2.254          11.576          10.759          11.583
  2910           8.979           1.288          16.253           2.262          11.616          10.799          11.623
  2920           8.979           1.288          16.253           2.270          11.656          10.838          11.663
  2930           8.979           1.288          16.253           2.278          11.696          10.878          11.703
  2940           8.979           1.288          16.253           2.285          11.735          10.918          11.742
  2950           8.979           1.288          16.254           2.293          11.775          10.958          11.782
  2960           8.980           1.288          16.254           2.301          11.815          10.997          11.822
  2970           8.980           1.288          16.254           2.309          11.855          11.037          11.862
  2980           8.980           1.288          16.254           2.316          11.894          11.077          11.901
  2990           8.980           1.288          16.254           2.324          11.934          11.117          11.941
  3000           8.980           1.288          16.255           2.332          11.974          11.156          11.981
  3010           8.980           1.288          16.255           2.340          12.014          11.196          12.020
  3020           8.980           1.288          16.255           2.347          12.054          11.236          12.060
  3030           8.981           1.288          16.255           2.355          12.093          11.276          12.100
  3040           8.981           1.288          16.255           2.363          12.133          11.315          12.140
  3050           8.981           1.288          16.256           2.371          12.173          11.355          12.179
  3060           8.981           1.288          16.256           2.378          12.213          11.395          12.219
  3070           8.981           1.288          16.256           2.386          12.252          11.435          12.259
  3080           8.981           1.288          16.256           2.394          12.292          11.475          12.299
  3090           8.981           1.288          16.256           2.401          12.332          11.514          12.338
  3100           8.981           1.288          16.257           2.409          12.372          11.554          12.378
  3110           8.981           1.288          16.257           2.417          12.411          11.594          12.418
  3120           8.982           1.288          16.257           2.425          12.451          11.634          12.458
  3130           8.982           1.288          16.257           2.432          12.491          11.673          12.497
  3140           8.982           1.288          16.257           2.440          12.531          11.713          12.537
  3150           8.982           1.288          16.258           2.448          12.570          11.753          12.577
  3160           8.982           1.288          16.258           2.456          12.610          11.793          12.617
  3170           8.982           1.288          16.258           2.463          12.650          11.832          12.656
  3180           8.982           1.288          16.258           2.471          12.690          11.872          12.696
  3190           8.982           1.288          16.258           2.479          12.730          11.912          12.736
  3200           8.983           1.288          16.258           2.487          12.769          11.952          12.776
  3210           8.983           1.288          16.259           2.494          12.809          11.991          12.815
  3220           8.983           1.288          16.259           2.502          12.849          12.031          12.855
  3230           8.983           1.288          16.259           2.510          12.889          12.071          12.895
  3240           8.983           1.288          16.259           2.518          12.928          12.111          12.935
  3250           8.983           1.288          16.259           2.525          12.968          12.151          12.974
  3260           8.983           1.288          16.259           2.533          13.008          12.190          13.014
  3270           8.983           1.288          16.260           2.541          13.048          12.230          13.054
  3280           8.983           1.288          16.260           2.549          13.087          12.270          13.094
  3290           8.983           1.288          16.260           2.556          13.127          12.310          13.133
  3300           8.984           1.288          16.260           2.564          13.167          12.349          13.173
  3310           8.984           1.288          16.260           2.572          13.207          12.389          13.213
  3320           8.984           1.288          16.260           2.580          13.247          12.429          13.253
  3330           8.984           1.288          16.261           2.587          13.286          12.469          13.292
  3340           8.984           1.288          16.261           2.595          13.326          12.509          13.332
  3350           8.984           1.288          16.261           2.603          13.366          12.548          13.372
  3360           8.984           1.288          16.261           2.610          13.406          12.588          13.412
  3370           8.984           1.288          16.261           2.618          13.445          12.628          13.451
  3380           8.984           1.288          16.261           2.626          13.485          12.668          13.491
  3390           8.984           1.288          16.261           2.634          13.525          12.707          13.531
  3400           8.985           1.288          16.262           2.641          13.565          12.747          13.571
  3410           8.985           1.288          16.262           2.649          13.605          12.787          13.610
  3420           8.985           1.288          16.262           2.657          13.644          12.827          13.650
  3430           8.985           1.288          16.262           2.665          13.684          12.866          13.690
  3440           8.985           1.288          16.262           2.672          13.724          12.906          13.730
  3450           8.985           1.288          16.262           2.680          13.764          12.946          13.769
  3460           8.985           1.288          16.262           2.688          13.803          12.986          13.809
  3470           8.985           1.288          16.263           2.696          13.843          13.026          13.849
  3480           8.985           1.288          16.263           2.703          13.883          13.065          13.889
  3490           8.985           1.288          16.263           2.711          13.923          13.105          13.929
  3500           8.985           1.288          16.263           2.719          13.963          13.145          13.968
  3510           8.985           1.288          16.263           2.727          14.002          13.185          14.008
  3520           8.986           1.288          16.263           2.734          14.042          13.225          14.048
  3530           8.986           1.288          16.263           2.742          14.082          13.264          14.088
  3540           8.986           1.288          16.263           2.750          14.122          13.304          14.127
  3550           8.986           1.288          16.264           2.758          14.161          13.344          14.167
  3560           8.986           1.288          16.264           2.765          14.201          13.384          14.207
  3570           8.986           1.288          16.264           2.773          14.241          13.423          14.247
  3580           8.986           1.288          16.264           2.781          14.281          13.463          14.286
  3590           8.986           1.288          16.264           2.789          14.321          13.503          14.326
  3600           8.986           1.288          16.264           2.796          14.360          13.543          14.366
  3610           8.986           1.288          16.264           2.804          14.400          13.583          14.406
  3620           8.986           1.288          16.264           2.812          14.440          13.622          14.445
  3630           8.986           1.288          16.265           2.820          14.480          13.662          14.485
  3640           8.986           1.288          16.265           2.827          14.519          13.702          14.525
  3650           8.987           1.288          16.265           2.835          14.559          13.742          14.565
  3660           8.987           1.288          16.265           2.843          14.599          13.781          14.605
  3670           8.987           1.288          16.265           2.851          14.639          13.821          14.644
  3680           8.987           1.288          16.265           2.858          14.679          13.861          14.684
  3690           8.987           1.288          16.265           2.866          14.718          13.901          14.724
  3700           8.987           1.288          16.265           2.874          14.758          13.941          14.764
  3710           8.987           1.288          16.265           2.881          14.798          13.980          14.803
  3720           8.987           1.288          16.266           2.889          14.838          14.020          14.843
  3730           8.987           1.288          16.266           2.897          14.878          14.060          14.883
  3740           8.987           1.288          16.266           2.905          14.917          14.100          14.923
  3750           8.987           1.288          16.266           2.912          14.957          14.140          14.963
  3760           8.987           1.288          16.266           2.920          14.997          14.179          15.002
  3770           8.987           1.288          16.266           2.928          15.037          14.219          15.042
  3780           8.987           1.288          16.266           2.936          15.076          14.259          15.082
  3790           8.988           1.288          16.266           2.943          15.116          14.299          15.122
  3800           8.988           1.288          16.266           2.951          15.156          14.338          15.161
  3810           8.988           1.288          16.267           2.959          15.196          14.378          15.201
  3820           8.988           1.288          16.267           2.967          15.236          14.418          15.241
  3830           8.988           1.288          16.267           2.974          15.275          14.458          15.281
  3840           8.988           1.288          16.267           2.982          15.315          14.498          15.320
  3850           8.988           1.288          16.267           2.990          15.355          14.537          15.360
  3860           8.988           1.288          16.267           2.998          15.395          14.577          15.400
  3870           8.988           1.288          16.267           3.005          15.435          14.617          15.440
  3880           8.988           1.288          16.267           3.013          15.474          14.657          15.480
  3890           8.988           1.288          16.267           3.021          15.514          14.697          15.519
  3900           8.988           1.288          16.267           3.029          15.554          14.736          15.559
  3910           8.988           1.288          16.267           3.036          15.594          14.776          15.599
  3920           8.988           1.288          16.268           3.044          15.634          14.816          15.639
  3930           8.988           1.288          16.268           3.052          15.673          14.856          15.678
  3940           8.988           1.288          16.268           3.060          15.713          14.896          15.718
  3950           8.989           1.288          16.268           3.067          15.753          14.935          15.758
  3960           8.989           1.288          16.268           3.075          15.793          14.975          15.798
  3970           8.989           1.288          16.268           3.083          15.832          15.015          15.838
  3980           8.989           1.288          16.268           3.091          15.872          15.055          15.877
  3990           8.989           1.288          16.268           3.098          15.912          15.095          15.917
  4000           8.989           1.288          16.268           3.106          15.952          15.134          15.957
  4010           8.989           1.288          16.268           3.114          15.992          15.174          15.997
  4020           8.989           1.288          16.268           3.122          16.031          15.214          16.036
  4030           8.989           1.288          16.269           3.129          16.071          15.254          16.076
  4040           8.989           1.288          16.269           3.137          16.111          15.293          16.116
  4050           8.989           1.288          16.269           3.145          16.151          15.333          16.156
  4060           8.989           1.288          16.269           3.153          16.191          15.373          16.196
  4070           8.989           1.288          16.269           3.160          16.230          15.413          16.235
  4080           8.989           1.288          16.269           3.168          16.270          15.453          16.275
  4090           8.989           1.288          16.269           3.176          16.310          15.492          16.315
  4100           8.989           1.288          16.269           3.184          16.350          15.532          16.355
  4110           8.989           1.288          16.269           3.191          16.390          15.572          16.395
  4120           8.989           1.288          16.269           3.199          16.429          15.612          16.434
  4130           8.989           1.288          16.269           3.207          16.469          15.652          16.474
  4140           8.990           1.288          16.269           3.215          16.509          15.691          16.514
  4150           8.990           1.288          16.270           3.222          16.549          15.731          16.554
  4160           8.990           1.288          16.270           3.230          16.589          15.771          16.593
  4170           8.990           1.288          16.270           3.238          16.628          15.811          16.633
  4180           8.990           1.288          16.270           3.246          16.668          15.851          16.673
  4190           8.990           1.288          16.270           3.253          16.708          15.890          16.713
  4200           8.990           1.288          16.270           3.261          16.748          15.930          16.753
  4210           8.990           1.288          16.270           3.269          16.788          15.970          16.792
  4220           8.990           1.288          16.270           3.277          16.827          16.010          16.832
  4230           8.990           1.288          16.270           3.284          16.867          16.050          16.872
  4240           8.990           1.288          16.270           3.292          16.907          16.089          16.912
  4250           8.990           1.288          16.270           3.300          16.947          16.129          16.952
  4260           8.990           1.288          16.270           3.308          16.987          16.169          16.991
  4270           8.990           1.288          16.270           3.315          17.026          16.209          17.031
  4280           8.990           1.288          16.271           3.323          17.066          16.249          17.071
  4290           8.990           1.288          16.271           3.331          17.106          16.288          17.111
  4300           8.990           1.287          16.271           3.339          17.146          16.328          17.150
  4310           8.990           1.287          16.271           3.346          17.186          16.368          17.190
  4320           8.990           1.287          16.271           3.354          17.225          16.408          17.230
  4330           8.990           1.287          16.271           3.362          17.265          16.448          17.270
  4340           8.990           1.287          16.271           3.369          17.305          16.487          17.310
  4350           8.991           1.287          16.271           3.377          17.345          16.527          17.349
  4360           8.991           1.287          16.271           3.385          17.385          16.567          17.389
  4370           8.991           1.287          16.271           3.393          17.424          16.607          17.429
  4380           8.991           1.287          16.271           3.400          17.464          16.647          17.469
  4390           8.991           1.287          16.271           3.408          17.504          16.686          17.509
  4400           8.991           1.287          16.271           3.416          17.544          16.726          17.548
  4410           8.991           1.287          16.271           3.424          17.584          16.766          17.588
  4420           8.991           1.287          16.272           3.431          17.623          16.806          17.628
  4430           8.991           1.287          16.272           3.439          17.663          16.846          17.668
  4440           8.991           1.287          16.272           3.447          17.703          16.885          17.708
  4450           8.991           1.287          16.272           3.455          17.743          16.925          17.747
  4460           8.991           1.287          16.272           3.462          17.783          16.965          17.787
  4470           8.991           1.287          16.272           3.470          17.822          17.005          17.827
  4480           8.991           1.287          16.272           3.478          17.862          17.045          17.867
  4490           8.991           1.287          16.272           3.486          17.902          17.084          17.906
  4500           8.991           1.287          16.272           3.493          17.942          17.124          17.946
  4510           8.991           1.287          16.272           3.501          17.982          17.164          17.986
  4520           8.991           1.287          16.272           3.509          18.021          17.204          18.026
  4530           8.991           1.287          16.272           3.517          18.061          17.244          18.066
  4540           8.991           1.287          16.272           3.524          18.101          17.283          18.105
  4550           8.991           1.287          16.272           3.532          18.141          17.323          18.145
  4560           8.991           1.287          16.272           3.540          18.181          17.363          18.185
  4570           8.991           1.287          16.272           3.548          18.220          17.403          18.225
  4580           8.991           1.287          16.273           3.555          18.260          17.443          18.265
  4590           8.991           1.287          16.273           3.563          18.300          17.482          18.304
  4600           8.992           1.287          16.273           3.571          18.340          17.522          18.344
  4610           8.992           1.287          16.273           3.579          18.380          17.562          18.384
  4620           8.992           1.287          16.273           3.586          18.419          17.602          18.424
  4630           8.992           1.287          16.273           3.594          18.459          17.642          18.464
  4640           8.992           1.287          16.273           3.602          18.499          17.681          18.503
  4650           8.992           1.287          16.273           3.610          18.539          17.721          18.543
  4660           8.992           1.287          16.273           3.617          18.579          17.761          18.583
  4670           8.992           1.287          16.273           3.625          18.618          17.801          18.623
  4680           8.992           1.287          16.273           3.633          18.658          17.841          18.663
  4690           8.992           1.287          16.273           3.641          18.698          17.880          18.702
  4700           8.992           1.287          16.273           3.648          18.738          17.920          18.742
  4710           8.992           1.287          16.273           3.656          18.778          17.960          18.782
  4720           8.992           1.287          16.273           3.664          18.817          18.000          18.822
  4730           8.992           1.287          16.273           3.672          18.857          18.040          18.862
  4740           8.992           1.287          16.273           3.679          18.897          18.079          18.901
  4750           8.992           1.287          16.273           3.687          18.937          18.119          18.941
  4760           8.992           1.287          16.274           3.695          18.977          18.159          18.981
  4770           8.992           1.287          16.274           3.703          19.016          18.199          19.021
  4780           8.992           1.287          16.274           3.710          19.056          18.239          19.061
  4790           8.992           1.287          16.274           3.718          19.096          18.279          19.100
  4800           8.992           1.287          16.274           3.726          19.136          18.318          19.140
  4810           8.992           1.287          16.274           3.734          19.176          18.358          19.180
  4820           8.992           1.287          16.274           3.741          19.216          18.398          19.220
  4830           8.992           1.287          16.274           3.749          19.255          18.438          19.260
  4840           8.992           1.287          16.274           3.757          19.295          18.478          19.299
  4850           8.992           1.287          16.274           3.765          19.335          18.517          19.339
  4860           8.992           1.287          16.274           3.772          19.375          18.557          19.379
  4870           8.992           1.287          16.274           3.780          19.415          18.597          19.419
  4880           8.992           1.287          16.274           3.788          19.454          18.637          19.458
  4890           8.993           1.287          16.274           3.796          19.494          18.677          19.498
  4900           8.993           1.287          16.274           3.803          19.534          18.716          19.538
  4910           8.993           1.287          16.274           3.811          19.574          18.756          19.578
  4920           8.993           1.287          16.274           3.819          19.614          18.796          19.618
  4930           8.993           1.287          16.274           3.827          19.653          18.836          19.657
  4940           8.993           1.287          16.274           3.834          19.693          18.876          19.697
  4950           8.993           1.287          16.274           3.842          19.733          18.915          19.737
  4960           8.993           1.287          16.274           3.850          19.773          18.955          19.777
  4970           8.993           1.287          16.275           3.858          19.813          18.995          19.817
  4980           8.993           1.287          16.275           3.865          19.852          19.035          19.856
  4990           8.993           1.287          16.275           3.873          19.892          19.075          19.896
  5000           8.993           1.287          16.275           3.881          19.932          19.114          19.936
  5010           8.993           1.287          16.275           3.889          19.972          19.154          19.976
  5020           8.993           1.287          16.275           3.896          20.012          19.194          20.016
  5030           8.993           1.287          16.275           3.904          20.051          19.234          20.055
  5040           8.993           1.287          16.275           3.912          20.091          19.274          20.095
  5050           8.993           1.287          16.275           3.920          20.131          19.314          20.135
  5060           8.993           1.287          16.275           3.927          20.171          19.353          20.175
  5070           8.993           1.287          16.275           3.935          20.211          19.393          20.215
  5080           8.993           1.287          16.275           3.943          20.251          19.433          20.255
  5090           8.993           1.287          16.275           3.951          20.290          19.473          20.294
  5100           8.993           1.287          16.275           3.958          20.330          19.513          20.334
  5110           8.993           1.287          16.275           3.966          20.370          19.552          20.374
  5120           8.993           1.287          16.275           3.974          20.410          19.592          20.414
  5130           8.993           1.287          16.275           3.982          20.450          19.632          20.454
  5140           8.993           1.287          16.275           3.989          20.489          19.672          20.493
  5150           8.993           1.287          16.275           3.997          20.529          19.712          20.533
  5160           8.993           1.287          16.275           4.005          20.569          19.751          20.573
  5170           8.993           1.287          16.275           4.013          20.609          19.791          20.613
  5180           8.993           1.287          16.275           4.020          20.649          19.831          20.653
  5190           8.993           1.287          16.275           4.028          20.688          19.871          20.692
  5200           8.993           1.287          16.276           4.036          20.728          19.911          20.732
  5210           8.993           1.287          16.276           4.044          20.768          19.950          20.772
  5220           8.993           1.287          16.276           4.051          20.808          19.990          20.812
  5230           8.993           1.287          16.276           4.059          20.848          20.030          20.852
  5240           8.993           1.287          16.276           4.067          20.887          20.070          20.891
  5250           8.993           1.287          16.276           4.075          20.927          20.110          20.931
  5260           8.994           1.287          16.276           4.082          20.967          20.150          20.971
  5270           8.994           1.287          16.276           4.090          21.007          20.189          21.011
  5280           8.994           1.287          16.276           4.098          21.047          20.229          21.051
  5290           8.994           1.287          16.276           4.106          21.087          20.269          21.090
  5300           8.994           1.287          16.276           4.113          21.126          20.309          21.130
  5310           8.994           1.287          16.276           4.121          21.166          20.349          21.170
  5320           8.994           1.287          16.276           4.129          21.206          20.388          21.210
  5330           8.994           1.287          16.276           4.137          21.246          20.428          21.250
  5340           8.994           1.287          16.276           4.144          21.286          20.468          21.289
  5350           8.994           1.287          16.276           4.152          21.325          20.508          21.329
  5360           8.994           1.287          16.276           4.160          21.365          20.548          21.369
  5370           8.994           1.287          16.276           4.168          21.405          20.587          21.409
  5380           8.994           1.287          16.276           4.175          21.445          20.627          21.449
  5390           8.994           1.287          16.276           4.183          21.485          20.667          21.488
  5400           8.994           1.287          16.276           4.191          21.524          20.707          21.528
  5410           8.994           1.287          16.276           4.199          21.564          20.747          21.568
  5420           8.994           1.287          16.276           4.206          21.604          20.787          21.608
  5430           8.994           1.287          16.276           4.214          21.644          20.826          21.648
  5440           8.994           1.287          16.276           4.222          21.684          20.866          21.687
  5450           8.994           1.287          16.276           4.230          21.724          20.906          21.727
  5460           8.994           1.287          16.277           4.237          21.763          20.946          21.767
  5470           8.994           1.287          16.277           4.245          21.803          20.986          21.807
  5480           8.994           1.287          16.277           4.253          21.843          21.025          21.847
  5490           8.994           1.287          16.277           4.261          21.883          21.065          21.886
  5500           8.994           1.287          16.277           4.268          21.923          21.105          21.926
  5510           8.994           1.287          16.277           4.276          21.962          21.145          21.966
  5520           8.994           1.287          16.277           4.284          22.002          21.185          22.006
  5530           8.994           1.287          16.277           4.292          22.042          21.224          22.046
  5540           8.994           1.287          16.277           4.299          22.082          21.264          22.086
  5550           8.994           1.287          16.277           4.307          22.122          21.304          22.125
  5560           8.994           1.287          16.277           4.315          22.161          21.344          22.165
  5570           8.994           1.287          16.277           4.323          22.201          21.384          22.205
  5580           8.994           1.287          16.277           4.330          22.241          21.424          22.245
  5590           8.994           1.287          16.277           4.338          22.281          21.463          22.285
  5600           8.994           1.287          16.277           4.346          22.321          21.503          22.324
  5610           8.994           1.287          16.277           4.354          22.361          21.543          22.364
  5620           8.994           1.287          16.277           4.361          22.400          21.583          22.404
  5630           8.994           1.287          16.277           4.369          22.440          21.623          22.444
  5640           8.994           1.287          16.277           4.377          22.480          21.662          22.484
  5650           8.994           1.287          16.277           4.385          22.520          21.702          22.523
  5660           8.994           1.287          16.277           4.392          22.560          21.742          22.563
  5670           8.994           1.287          16.277           4.400          22.599          21.782          22.603
  5680           8.994           1.287          16.277           4.408          22.639          21.822          22.643
  5690           8.994           1.287          16.277           4.416          22.679          21.862          22.683
  5700           8.994           1.287          16.277           4.423          22.719          21.901          22.722
  5710           8.995           1.287          16.277           4.431          22.759          21.941          22.762
  5720           8.995           1.287          16.277           4.439          22.799          21.981          22.802
  5730           8.995           1.287          16.277           4.447          22.838          22.021          22.842
  5740           8.995           1.287          16.277           4.454          22.878          22.061          22.882
  5750           8.995           1.287          16.277           4.462          22.918          22.100          22.921
  5760           8.995           1.287          16.277           4.470          22.958          22.140          22.961
  5770           8.995           1.287          16.278           4.478          22.998          22.180          23.001
  5780           8.995           1.287          16.278           4.485          23.037          22.220          23.041
  5790           8.995           1.287          16.278           4.493          23.077          22.260          23.081
  5800           8.995           1.287          16.278           4.501          23.117          22.299          23.121
  5810           8.995           1.287          16.278           4.509          23.157          22.339          23.160
  5820           8.995           1.287          16.278           4.516          23.197          22.379          23.200
  5830           8.995           1.287          16.278           4.524          23.236          22.419          23.240
  5840           8.995           1.287          16.278           4.532          23.276          22.459          23.280
  5850           8.995           1.287          16.278           4.540          23.316          22.499          23.320
  5860           8.995           1.287          16.278           4.547          23.356          22.538          23.359
  5870           8.995           1.287          16.278           4.555          23.396          22.578          23.399
  5880           8.995           1.287          16.278           4.563          23.436          22.618          23.439
  5890           8.995           1.287          16.278           4.571          23.475          22.658          23.479
  5900           8.995           1.287          16.278           4.578          23.515          22.698          23.519
  5910           8.995           1.287          16.278           4.586          23.555          22.737          23.558
  5920           8.995           1.287          16.278           4.594          23.595          22.777          23.598
  5930           8.995           1.287          16.278           4.602          23.635          22.817          23.638
  5940           8.995           1.287          16.278           4.609          23.674          22.857          23.678
  5950           8.995           1.287          16.278           4.617          23.714          22.897          23.718
  5960           8.995           1.287          16.278           4.625          23.754          22.937          23.758
  5970           8.995           1.287          16.278           4.633          23.794          22.976          23.797
  5980           8.995           1.287          16.278           4.640          23.834          23.016          23.837
  5990           8.995           1.287          16.278           4.648          23.874          23.056          23.877
  6000           8.995           1.287          16.278           4.656          23.913          23.096          23.917
  6010           8.995           1.287          16.278           4.664          23.953          23.136          23.957
  6020           8.995           1.287          16.278           4.671          23.993          23.175          23.996
  6030           8.995           1.287          16.278           4.679          24.033          23.215          24.036
  6040           8.995           1.287          16.278           4.687          24.073          23.255          24.076
  6050           8.995           1.287          16.278           4.695          24.112          23.295          24.116
  6060           8.995           1.287          16.278           4.702          24.152          23.335          24.156
  6070           8.995           1.287          16.278           4.710          24.192          23.375          24.195
  6080           8.995           1.287          16.278           4.718          24.232          23.414          24.235
  6090           8.995           1.287          16.278           4.726          24.272          23.454          24.275
  6100           8.995           1.287          16.278           4.733          24.312          23.494          24.315
  6110           8.995           1.287          16.278           4.741          24.351          23.534          24.355
  6120           8.995           1.287          16.278           4.749          24.391          23.574          24.394
  6130           8.995           1.287          16.278           4.757          24.431          23.613          24.434
  6140           8.995           1.287          16.278           4.764          24.471          23.653          24.474
  6150           8.995           1.287          16.279           4.772          24.511          23.693          24.514
  6160           8.995           1.287          16.279           4.780          24.550          23.733          24.554
  6170           8.995           1.287          16.279           4.788          24.590          23.773          24.594
  6180           8.995           1.287          16.279           4.795          24.630          23.813          24.633
  6190           8.995           1.287          16.279           4.803          24.670          23.852          24.673
  6200           8.995           1.287          16.279           4.811          24.710          23.892          24.713
  6210           8.995           1.287          16.279           4.819          24.750          23.932          24.753
  6220           8.995           1.287          16.279           4.826          24.789          23.972          24.793
  6230           8.995           1.287          16.279           4.834          24.829          24.012          24.832
  6240           8.995           1.287          16.279           4.842          24.869          24.051          24.872
  6250           8.995           1.287          16.279           4.850          24.909          24.091          24.912
  6260           8.995           1.287          16.279           4.857          24.949          24.131          24.952
  6270           8.995           1.287          16.279           4.865          24.988          24.171          24.992
  6280           8.995           1.287          16.279           4.873          25.028          24.211          25.032
  6290           8.995           1.287          16.279           4.881          25.068          24.251          25.071
  6300           8.995           1.287          16.279           4.888          25.108          24.290          25.111
  6310           8.995           1.287          16.279           4.896          25.148          24.330          25.151
  6320           8.996           1.287          16.279           4.904          25.188          24.370          25.191
  6330           8.996           1.287          16.279           4.912          25.227          24.410          25.231
  6340           8.996           1.287          16.279           4.919          25.267          24.450          25.270
  6350           8.996           1.287          16.279           4.927          25.307          24.489          25.310
  6360           8.996           1.287          16.279           4.935          25.347          24.529          25.350
  6370           8.996           1.287          16.279           4.943          25.387          24.569          25.390
  6380           8.996           1.287          16.279           4.951          25.426          24.609          25.430
  6390           8.996           1.287          16.279           4.958          25.466          24.649          25.469
  6400           8.996           1.287          16.279           4.966          25.506          24.689          25.509
  6410           8.996           1.287          16.279           4.974          25.546          24.728          25.549
  6420           8.996           1.287          16.279           4.982          25.586          24.768          25.589
  6430           8.996           1.287          16.279           4.989          25.626          24.808          25.629
  6440           8.996           1.287          16.279           4.997          25.665          24.848          25.669
  6450           8.996           1.287          16.279           5.005          25.705          24.888          25.708
  6460           8.996           1.287          16.279           5.013          25.745          24.927          25.748
  6470           8.996           1.287          16.279           5.020          25.785          24.967          25.788
  6480           8.996           1.287          16.279           5.028          25.825          25.007          25.828
  6490           8.996           1.287          16.279           5.036          25.864          25.047          25.868
  6500           8.996           1.287          16.279           5.044          25.904          25.087          25.907
  6510           8.996           1.287          16.279           5.051          25.944          25.127          25.947
  6520           8.996           1.287          16.279           5.059          25.984          25.166          25.987
  6530           8.996           1.287          16.279           5.067          26.024          25.206          26.027
  6540           8.996           1.287          16.279           5.075          26.064          25.246          26.067
  6550           8.996           1.287          16.279           5.082          26.103          25.286          26.106
  6560           8.996           1.287          16.279           5.090          26.143          25.326          26.146
  6570           8.996           1.287          16.279           5.098          26.183          25.365          26.186
  6580           8.996           1.287          16.279           5.106          26.223          25.405          26.226
  6590           8.996           1.287          16.279           5.113          26.263          25.445          26.266
  6600           8.996           1.287          16.280           5.121          26.303          25.485          26.306
  6610           8.996           1.287          16.280           5.129          26.342          25.525          26.345
  6620           8.996           1.287          16.280           5.137          26.382          25.565          26.385
  6630           8.996           1.287          16.280           5.144          26.422          25.604          26.425
  6640           8.996           1.287          16.280           5.152          26.462          25.644          26.465
  6650           8.996           1.287          16.280           5.160          26.502          25.684          26.505
  6660           8.996           1.287          16.280           5.168          26.541          25.724          26.544
  6670           8.996           1.287          16.280           5.175          26.581          25.764          26.584
  6680           8.996           1.287          16.280           5.183          26.621          25.804          26.624
  6690           8.996           1.287          16.280           5.191          26.661          25.843          26.664
  6700           8.996           1.287          16.280           5.199          26.701          25.883          26.704
  6710           8.996           1.287          16.280           5.206          26.741          25.923          26.744
  6720           8.996           1.287          16.280           5.214          26.780          25.963          26.783
  6730           8.996           1.287          16.280           5.222          26.820          26.003          26.823
  6740           8.996           1.287          16.280           5.230          26.860          26.042          26.863
  6750           8.996           1.287          16.280           5.237          26.900          26.082          26.903
  6760           8.996           1.287          16.280           5.245          26.940          26.122          26.943
  6770           8.996           1.287          16.280           5.253          26.979          26.162          26.982
  6780           8.996           1.287          16.280           5.261          27.019          26.202          27.022
  6790           8.996           1.287          16.280           5.268          27.059          26.242          27.062
  6800           8.996           1.287          16.280           5.276          27.099          26.281          27.102
  6810           8.996           1.287          16.280           5.284          27.139          26.321          27.142
  6820           8.996           1.287          16.280           5.292          27.179          26.361          27.182
  6830           8.996           1.287          16.280           5.299          27.218          26.401          27.221
  6840           8.996           1.287          16.280           5.307          27.258          26.441          27.261
  6850           8.996           1.287          16.280           5.315          27.298          26.480          27.301
  6860           8.996           1.287          16.280           5.323          27.338          26.520          27.341
  6870           8.996           1.287          16.280           5.330          27.378          26.560          27.381
  6880           8.996           1.287          16.280           5.338          27.417          26.600          27.420
  6890           8.996           1.287          16.280           5.346          27.457          26.640          27.460
  6900           8.996           1.287          16.280           5.354          27.497          26.680          27.500
  6910           8.996           1.287          16.280           5.361          27.537          26.719          27.540
  6920           8.996           1.287          16.280           5.369          27.577          26.759          27.580
  6930           8.996           1.287          16.280           5.377          27.617          26.799          27.620
  6940           8.996           1.287          16.280           5.385          27.656          26.839          27.659
  6950           8.996           1.287          16.280           5.392          27.696          26.879          27.699
  6960           8.996           1.287          16.280           5.400          27.736          26.919          27.739
  6970           8.996           1.287          16.280           5.408          27.776          26.958          27.779
  6980           8.996           1.287          16.280           5.416          27.816          26.998          27.819
  6990           8.996           1.287          16.280           5.423          27.856          27.038          27.858
  7000           8.996           1.287          16.280           5.431          27.895          27.078          27.898
  7010           8.996           1.287          16.280           5.439          27.935          27.118          27.938
  7020           8.996           1.287          16.280           5.447          27.975          27.157          27.978
  7030           8.996           1.287          16.280           5.454          28.015          27.197          28.018
  7040           8.996           1.287          16.280           5.462          28.055          27.237          28.058
  7050           8.996           1.287          16.280           5.470          28.094          27.277          28.097
  7060           8.996           1.287          16.280           5.478          28.134          27.317          28.137
  7070           8.996           1.287          16.280           5.485          28.174          27.357          28.177
  7080           8.996           1.287          16.280           5.493          28.214          27.396          28.217
  7090           8.996           1.287          16.280           5.501          28.254          27.436          28.257
  7100           8.996           1.287          16.280           5.509          28.294          27.476          28.296
  7110           8.996           1.287          16.280           5.516          28.333          27.516          28.336
  7120           8.996           1.287          16.280           5.524          28.373          27.556          28.376
  7130           8.996           1.287          16.280           5.532          28.413          27.596          28.416
  7140           8.996           1.287          16.280           5.540          28.453          27.635          28.456
  7150           8.996           1.287          16.280           5.547          28.493          27.675          28.496
  7160           8.997           1.287          16.280           5.555          28.533          27.715          28.535
  7170           8.997           1.287          16.280           5.563          28.572          27.755          28.575
  7180           8.997           1.287          16.281           5.571          28.612          27.795          28.615
  7190           8.997           1.287          16.281           5.578          28.652          27.834          28.655
  7200           8.997           1.287          16.281           5.586          28.692          27.874          28.695
  7210           8.997           1.287          16.281           5.594          28.732          27.914          28.734
  7220           8.997           1.287          16.281           5.602          28.771          27.954          28.774
  7230           8.997           1.287          16.281           5.609          28.811          27.994          28.814
  7240           8.997           1.287          16.281           5.617          28.851          28.034          28.854
  7250           8.997           1.287          16.281           5.625          28.891          28.073          28.894
  7260           8.997           1.287          16.281           5.633          28.931          28.113          28.934
  7270           8.997           1.287          16.281           5.640          28.971          28.153          28.973
  7280           8.997           1.287          16.281           5.648          29.010          28.193          29.013
  7290           8.997           1.287          16.281           5.656          29.050          28.233          29.053
  7300           8.997           1.287          16.281           5.664          29.090          28.272          29.093
  7310           8.997           1.287          16.281           5.671          29.130          28.312          29.133
  7320           8.997           1.287          16.281           5.679          29.170          28.352          29.172
  7330           8.997           1.287          16.281           5.687          29.210          28.392          29.212
  7340           8.997           1.287          16.281           5.695          29.249          28.432          29.252
  7350           8.997           1.287          16.281           5.702          29.289          28.472          29.292
  7360           8.997           1.287          16.281           5.710          29.329          28.511          29.332
  7370           8.997           1.287          16.281           5.718          29.369          28.551          29.372
  7380           8.997           1.287          16.281           5.726          29.409          28.591          29.411
  7390           8.997           1.287          16.281           5.733          29.448          28.631          29.451
  7400           8.997           1.287          16.281           5.741          29.488          28.671          29.491
  7410           8.997           1.287          16.281           5.749          29.528          28.711          29.531
  7420           8.997           1.287          16.281           5.757          29.568          28.750          29.571
  7430           8.997           1.287          16.281           5.764          29.608          28.790          29.610
  7440           8.997           1.287          16.281           5.772          29.648          28.830          29.650
  7450           8.997           1.287          16.281           5.780          29.687          28.870          29.690
  7460           8.997           1.287          16.281           5.788          29.727          28.910          29.730
  7470           8.997           1.287          16.281           5.796          29.767          28.949          29.770
  7480           8.997           1.287          16.281           5.803          29.807          28.989          29.810
  7490           8.997           1.287          16.281           5.811          29.847          29.029          29.849
  7500           8.997           1.287          16.281           5.819          29.887          29.069          29.889
  7510           8.997           1.287          16.281           5.827          29.926          29.109          29.929
  7520           8.997           1.287          16.281           5.834          29.966          29.149          29.969
  7530           8.997           1.287          16.281           5.842          30.006          29.188          30.009
  7540           8.997           1.287          16.281           5.850          30.046          29.228          30.049
  7550           8.997           1.287          16.281           5.858          30.086          29.268          30.088
  7560           8.997           1.287          16.281           5.865          30.125          29.308          30.128
  7570           8.997           1.287          16.281           5.873          30.165          29.348          30.168
  7580           8.997           1.287          16.281           5.881          30.205          29.388          30.208
  7590           8.997           1.287          16.281           5.889          30.245          29.427          30.248
  7600           8.997           1.287          16.281           5.896          30.285          29.467          30.287
  7610           8.997           1.287          16.281           5.904          30.325          29.507          30.327
  7620           8.997           1.287          16.281           5.912          30.364          29.547          30.367
  7630           8.997           1.287          16.281           5.920          30.404          29.587          30.407
  7640           8.997           1.287          16.281           5.927          30.444          29.627          30.447
  7650           8.997           1.287          16.281           5.935          30.484          29.666          30.487
  7660           8.997           1.287          16.281           5.943          30.524          29.706          30.526
  7670           8.997           1.287          16.281           5.951          30.564          29.746          30.566
  7680           8.997           1.287          16.281           5.958          30.603          29.786          30.606
  7690           8.997           1.287          16.281           5.966          30.643          29.826          30.646
  7700           8.997           1.287          16.281           5.974          30.683          29.865          30.686
  7710           8.997           1.287          16.281           5.982          30.723          29.905          30.725
  7720           8.997           1.287          16.281           5.989          30.763          29.945          30.765
  7730           8.997           1.287          16.281           5.997          30.802          29.985          30.805
  7740           8.997           1.287          16.281           6.005          30.842          30.025          30.845
  7750           8.997           1.287          16.281           6.013          30.882          30.065          30.885
  7760           8.997           1.287          16.281           6.020          30.922          30.104          30.925
  7770           8.997           1.287          16.281           6.028          30.962          30.144          30.964
  7780           8.997           1.287          16.281           6.036          31.002          30.184          31.004
  7790           8.997           1.287          16.281           6.044          31.041          30.224          31.044
  7800           8.997           1.287          16.281           6.051          31.081          30.264          31.084
  7810           8.997           1.287          16.281           6.059          31.121          30.304          31.124
  7820           8.997           1.287          16.281           6.067          31.161          30.343          31.163
  7830           8.997           1.287          16.281           6.075          31.201          30.383          31.203
  7840           8.997           1.287          16.281           6.082          31.241          30.423          31.243
  7850           8.997           1.287          16.281           6.090          31.280          30.463          31.283
  7860           8.997           1.287          16.281           6.098          31.320          30.503          31.323
  7870           8.997           1.287          16.281           6.106          31.360          30.542          31.363
  7880           8.997           1.287          16.281           6.113          31.400          30.582          31.402
  7890           8.997           1.287          16.281           6.121          31.440          30.622          31.442
  7900           8.997           1.287          16.281           6.129          31.480          30.662          31.482
  7910           8.997           1.287          16.281           6.137          31.519          30.702          31.522
  7920           8.997           1.287          16.281           6.144          31.559          30.742          31.562
  7930           8.997           1.287          16.282           6.152          31.599          30.781          31.602
  7940           8.997           1.287          16.282           6.160          31.639          30.821          31.641
  7950           8.997           1.287          16.282           6.168          31.679          30.861          31.681
  7960           8.997           1.287          16.282           6.175          31.718          30.901          31.721
  7970           8.997           1.287          16.282           6.183          31.758          30.941          31.761
  7980           8.997           1.287          16.282           6.191          31.798          30.981          31.801
  7990           8.997           1.287          16.282           6.199          31.838          31.020          31.840
  8000           8.997           1.287          16.282           6.206          31.878          31.060          31.880
  8010           8.997           1.287          16.282           6.214          31.918          31.100          31.920
  8020           8.997           1.287          16.282           6.222          31.957          31.140          31.960
  8030           8.997           1.287          16.282           6.230          31.997          31.180          32.000
  8040           8.997           1.287          16.282           6.237          32.037          31.220          32.040
  8050           8.997           1.287          16.282           6.245          32.077          31.259          32.079
  8060           8.997           1.287          16.282           6.253          32.117          31.299          32.119
  8070           8.997           1.287          16.282           6.261          32.157          31.339          32.159
  8080           8.997           1.287          16.282           6.268          32.196          31.379          32.199
  8090           8.997           1.287          16.282           6.276          32.236          31.419          32.239
  8100           8.997           1.287          16.282           6.284          32.276          31.458          32.279
  8110           8.997           1.287          16.282           6.292          32.316          31.498          32.318
  8120           8.997           1.287          16.282           6.299          32.356          31.538          32.358
  8130           8.997           1.287          16.282           6.307          32.395          31.578          32.398
  8140           8.997           1.287          16.282           6.315          32.435          31.618          32.438
  8150           8.997           1.287          16.282           6.323          32.475          31.658          32.478
  8160           8.997           1.287          16.282           6.330          32.515          31.697          32.517
  8170           8.997           1.287          16.282           6.338          32.555          31.737          32.557
  8180           8.997           1.287          16.282           6.346          32.595          31.777          32.597
  8190           8.997           1.287          16.282           6.354          32.634          31.817          32.637
  8200           8.997           1.287          16.282           6.361          32.674          31.857          32.677
  8210           8.997           1.287          16.282           6.369          32.714          31.897          32.717
  8220           8.997           1.287          16.282           6.377          32.754          31.936          32.756
  8230           8.997           1.287          16.282           6.385          32.794          31.976          32.796
  8240           8.997           1.287          16.282           6.392          32.834          32.016          32.836
  8250           8.997           1.287          16.282           6.400          32.873          32.056          32.876
  8260           8.997           1.287          16.282           6.408          32.913          32.096          32.916
  8270           8.997           1.287          16.282           6.416          32.953          32.136          32.956
  8280           8.997           1.287          16.282           6.424          32.993          32.175          32.995
  8290           8.997           1.287          16.282           6.431          33.033          32.215          33.035
  8300           8.997           1.287          16.282           6.439          33.073          32.255          33.075
  8310           8.997           1.287          16.282           6.447          33.112          32.295          33.115
  8320           8.997           1.287          16.282           6.455          33.152          32.335          33.155
  8330           8.997           1.287          16.282           6.462          33.192          32.374          33.194
  8340           8.997           1.287          16.282           6.470          33.232          32.414          33.234
  8350           8.997           1.287          16.282           6.478          33.272          32.454          33.274
  8360           8.997           1.287          16.282           6.486          33.311          32.494          33.314
  8370           8.997           1.287          16.282           6.493          33.351          32.534          33.354
  8380           8.997           1.287          16.282           6.501          33.391          32.574          33.394
  8390           8.997           1.287          16.282           6.509          33.431          32.613          33.433
  8400           8.997           1.287          16.282           6.517          33.471          32.653          33.473
  8410           8.997           1.287          16.282           6.524          33.511          32.693          33.513
  8420           8.997           1.287          16.282           6.532          33.550          32.733          33.553
  8430           8.997           1.287          16.282           6.540          33.590          32.773          33.593
  8440           8.997           1.287          16.282           6.548          33.630          32.813          33.633
  8450           8.997           1.287          16.282           6.555          33.670          32.852          33.672
  8460           8.997           1.287          16.282           6.563          33.710          32.892          33.712
  8470           8.997           1.287          16.282           6.571          33.750          32.932          33.752
  8480           8.998           1.287          16.282           6.579          33.789          32.972          33.792
  8490           8.998           1.287          16.282           6.586          33.829          33.012          33.832
  8500           8.998           1.287          16.282           6.594          33.869          33.052          33.871
  8510           8.998           1.287          16.282           6.602          33.909          33.091          33.911
  8520           8.998           1.287          16.282           6.610          33.949          33.131          33.951
  8530           8.998           1.287          16.282           6.617          33.989          33.171          33.991
  8540           8.998           1.287          16.282           6.625          34.028          33.211          34.031
  8550           8.998           1.287          16.282           6.633          34.068          33.251          34.071
  8560           8.998           1.287          16.282           6.641          34.108          33.290          34.110
  8570           8.998           1.287          16.282           6.648          34.148          33.330          34.150
  8580           8.998           1.287          16.282           6.656          34.188          33.370          34.190
  8590           8.998           1.287          16.282           6.664          34.228          33.410          34.230
  8600           8.998           1.287          16.282           6.672          34.267          33.450          34.270
  8610           8.998           1.287          16.282           6.679          34.307          33.490          34.310
  8620           8.998           1.287          16.282           6.687          34.347          33.529          34.349
  8630           8.998           1.287          16.282           6.695          34.387          33.569          34.389
  8640           8.998           1.287          16.282           6.703          34.427          33.609          34.429
  8650           8.998           1.287          16.282           6.710          34.466          33.649          34.469
  8660           8.998           1.287          16.282           6.718          34.506          33.689          34.509
  8670           8.998           1.287          16.282           6.726          34.546          33.729          34.548
  8680           8.998           1.287          16.282           6.734          34.586          33.768          34.588
  8690           8.998           1.287          16.282           6.741          34.626          33.808          34.628
  8700           8.998           1.287          16.282           6.749          34.666          33.848          34.668
  8710           8.998           1.287          16.282           6.757          34.705          33.888          34.708
  8720           8.998           1.287          16.282           6.765          34.745          33.928          34.748
  8730           8.998           1.287          16.282           6.772          34.785          33.968          34.787
  8740           8.998           1.287          16.282           6.780          34.825          34.007          34.827
  8750           8.998           1.287          16.282           6.788          34.865          34.047          34.867
  8760           8.998           1.287          16.282           6.796          34.905          34.087          34.907
  8770           8.998           1.287          16.282           6.803          34.944          34.127          34.947
  8780           8.998           1.287          16.282           6.811          34.984          34.167          34.987
  8790           8.998           1.287          16.282           6.819          35.024          34.207          35.026
  8800           8.998           1.287          16.282           6.827          35.064          34.246          35.066
  8810           8.998           1.287          16.282           6.834          35.104          34.286          35.106
  8820           8.998           1.287          16.282           6.842          35.144          34.326          35.146
  8830           8.998           1.287          16.282           6.850          35.183          34.366          35.186
  8840           8.998           1.287          16.282           6.858          35.223          34.406          35.225
  8850           8.998           1.287          16.282           6.865          35.263          34.445          35.265
  8860           8.998           1.287          16.282           6.873          35.303          34.485          35.305
  8870           8.998           1.287          16.282           6.881          35.343          34.525          35.345
  8880           8.998           1.287          16.282           6.889          35.383          34.565          35.385
  8890           8.998           1.287          16.282           6.896          35.422          34.605          35.425
  8900           8.998           1.287          16.282           6.904          35.462          34.645          35.464
  8910           8.998           1.287          16.282           6.912          35.502          34.684          35.504
  8920           8.998           1.287          16.282           6.920          35.542          34.724          35.544
  8930           8.998           1.287          16.282           6.927          35.582          34.764          35.584
  8940           8.998           1.287          16.282           6.935          35.621          34.804          35.624
  8950           8.998           1.287          16.282           6.943          35.661          34.844          35.664
  8960           8.998           1.287          16.282           6.951          35.701          34.884          35.703
  8970           8.998           1.287          16.282           6.959          35.741          34.923          35.743
  8980           8.998           1.287          16.282           6.966          35.781          34.963          35.783
  8990           8.998           1.287          16.283           6.974          35.821          35.003          35.823
  9000           8.998           1.287          16.283           6.982          35.860          35.043          35.863
  9010           8.998           1.287          16.283           6.990          35.900          35.083          35.903
  9020           8.998           1.287          16.283           6.997          35.940          35.123          35.942
  9030           8.998           1.287          16.283           7.005          35.980          35.162          35.982
  9040           8.998           1.287          16.283           7.013          36.020          35.202          36.022
  9050           8.998           1.287          16.283           7.021          36.060          35.242          36.062
  9060           8.998           1.287          16.283           7.028          36.099          35.282          36.102
  9070           8.998           1.287          16.283           7.036          36.139          35.322          36.141
  9080           8.998           1.287          16.283           7.044          36.179          35.362          36.181
  9090           8.998           1.287          16.283           7.052          36.219          35.401          36.221
  9100           8.998           1.287          16.283           7.059          36.259          35.441          36.261
  9110           8.998           1.287          16.283           7.067          36.299          35.481          36.301
  9120           8.998           1.287          16.283           7.075          36.338          35.521          36.341
  9130           8.998           1.287          16.283           7.083          36.378          35.561          36.380
  9140           8.998           1.287          16.283           7.090          36.418          35.600          36.420
  9150           8.998           1.287          16.283           7.098          36.458          35.640          36.460
  9160           8.998           1.287          16.283           7.106          36.498          35.680          36.500
  9170           8.998           1.287          16.283           7.114          36.538          35.720          36.540
  9180           8.998           1.287          16.283           7.121          36.577          35.760          36.580
  9190           8.998           1.287          16.283           7.129          36.617          35.800          36.619
  9200           8.998           1.287          16.283           7.137          36.657          35.839          36.659
  9210           8.998           1.287          16.283           7.145          36.697          35.879          36.699
  9220           8.998           1.287          16.283           7.152          36.737          35.919          36.739
  9230           8.998           1.287          16.283           7.160          36.776          35.959          36.779
  9240           8.998           1.287          16.283           7.168          36.816          35.999          36.819
  9250           8.998           1.287          16.283           7.176          36.856          36.039          36.858
  9260           8.998           1.287          16.283           7.183          36.896          36.078          36.898
  9270           8.998           1.287          16.283           7.191          36.936          36.118          36.938
  9280           8.998           1.287          16.283           7.199          36.976          36.158          36.978
  9290           8.998           1.287          16.283           7.207          37.015          36.198          37.018
  9300           8.998           1.287          16.283           7.214          37.055          36.238          37.057
  9310           8.998           1.287          16.283           7.222          37.095          36.278          37.097
  9320           8.998           1.287          16.283           7.230          37.135          36.317          37.137
  9330           8.998           1.287          16.283           7.238          37.175          36.357          37.177
  9340           8.998           1.287          16.283           7.245          37.215          36.397          37.217
  9350           8.998           1.287          16.283           7.253          37.254          36.437          37.257
  9360           8.998           1.287          16.283           7.261          37.294          36.477          37.296
  9370           8.998           1.287          16.283           7.269          37.334          36.517          37.336
  9380           8.998           1.287          16.283           7.276          37.374          36.556          37.376
  9390           8.998           1.287          16.283           7.284          37.414          36.596          37.416
  9400           8.998           1.287          16.283           7.292          37.454          36.636          37.456
  9410           8.998           1.287          16.283           7.300          37.493          36.676          37.496
  9420           8.998           1.287          16.283           7.307          37.533          36.716          37.535
  9430           8.998           1.287          16.283           7.315          37.573          36.756          37.575
  9440           8.998           1.287          16.283           7.323          37.613          36.795          37.615
  9450           8.998           1.287          16.283           7.331          37.653          36.835          37.655
  9460           8.998           1.287          16.283           7.338          37.693          36.875          37.695
  9470           8.998           1.287          16.283           7.346          37.732          36.915          37.735
  9480           8.998           1.287          16.283           7.354          37.772          36.955          37.774
  9490           8.998           1.287          16.283           7.362          37.812          36.994          37.814
  9500           8.998           1.287          16.283           7.369          37.852          37.034          37.854
  9510           8.998           1.287          16.283           7.377          37.892          37.074          37.894
  9520           8.998           1.287          16.283           7.385          37.932          37.114          37.934
  9530           8.998           1.287          16.283           7.393          37.971          37.154          37.973
  9540           8.998           1.287          16.283           7.400          38.011          37.194          38.013
  9550           8.998           1.287          16.283           7.408          38.051          37.233          38.053
  9560           8.998           1.287          16.283           7.416          38.091          37.273          38.093
  9570           8.998           1.287          16.283           7.424          38.131          37.313          38.133
  9580           8.998           1.287          16.283           7.431          38.170          37.353          38.173
  9590           8.998           1.287          16.283           7.439          38.210          37.393          38.212
  9600           8.998           1.287          16.283           7.447          38.250          37.433          38.252
  9610           8.998           1.287          16.283           7.455          38.290          37.472          38.292
  9620           8.998           1.287          16.283           7.463          38.330          37.512          38.332
  9630           8.998           1.287          16.283           7.470          38.370          37.552          38.372
  9640           8.998           1.287          16.283           7.478          38.409          37.592          38.412
  9650           8.998           1.287          16.283           7.486          38.449          37.632          38.451
  9660           8.998           1.287          16.283           7.494          38.489          37.672          38.491
  9670           8.998           1.287          16.283           7.501          38.529          37.711          38.531
  9680           8.998           1.287          16.283           7.509          38.569          37.751          38.571
  9690           8.998           1.287          16.283           7.517          38.609          37.791          38.611
  9700           8.998           1.287          16.283           7.525          38.648          37.831          38.651
  9710           8.998           1.287          16.283           7.532          38.688          37.871          38.690
  9720           8.998           1.287          16.283           7.540          38.728          37.911          38.730
  9730           8.998           1.287          16.283           7.548          38.768          37.950          38.770
  9740           8.998           1.287          16.283           7.556          38.808          37.990          38.810
  9750           8.998           1.287          16.283           7.563          38.848          38.030          38.850
  9760           8.998           1.287          16.283           7.571          38.887          38.070          38.889
  9770           8.998           1.287          16.283           7.579          38.927          38.110          38.929
  9780           8.998           1.287          16.283           7.587          38.967          38.150          38.969
  9790           8.998           1.287          16.283           7.594          39.007          38.189          39.009
  9800           8.998           1.287          16.283           7.602          39.047          38.229          39.049
  9810           8.998           1.287          16.283           7.610          39.087          38.269          39.089
  9820           8.998           1.287          16.283           7.618          39.126          38.309          39.128
  9830           8.998           1.287          16.283           7.625          39.166          38.349          39.168
  9840           8.998           1.287          16.283           7.633          39.206          38.388          39.208
  9850           8.998           1.287          16.283           7.641          39.246          38.428          39.248
  9860           8.998           1.287          16.283           7.649          39.286          38.468          39.288
  9870           8.998           1.287          16.283           7.656          39.326          38.508          39.328
  9880           8.998           1.287          16.283           7.664          39.365          38.548          39.367
  9890           8.998           1.287          16.283           7.672          39.405          38.588          39.407
  9900           8.998           1.287          16.283           7.680          39.445          38.627          39.447
  9910           8.998           1.287          16.283           7.687          39.485          38.667          39.487
  9920           8.998           1.287          16.283           7.695          39.525          38.707          39.527
  9930           8.998           1.287          16.283           7.703          39.564          38.747          39.567
  9940           8.998           1.287          16.283           7.711          39.604          38.787          39.606
  9950           8.998           1.287          16.283           7.718          39.644          38.827          39.646
  9960           8.998           1.287          16.283           7.726          39.684          38.866          39.686
  9970           8.998           1.287          16.283           7.734          39.724          38.906          39.726
  9980           8.998           1.287          16.283           7.742          39.764          38.944          39.766
  9990           8.998           1.287          16.283           7.749          39.803          38.991          39.806
 10000           8.998           1.287          16.283           7.757          39.843          39.006          39.845
