# RPA macroscopic dielectric function without local fields
# nstates included in the diagonalization = 384
# npweps  = 51
# npwwfn  = 137
# nbands  = 8
# loband  = 2
# nkibz   = 2
# nkbz    = 32
# Lorentzian broadening =  0.1000 [eV]
# List of q-points for the optical limit:
# q =  0.938821, 0.000000, 0.000000, [Reduced coords] 
# q =  0.000000, 0.938821, 0.000000, [Reduced coords] 
# q =  0.000000, 0.000000, 0.938821, [Reduced coords] 
# q =  0.000000, 0.813043, 0.813043, [Reduced coords] 
# q =  0.813043, 0.000000, 0.813043, [Reduced coords] 
# q =  0.813043, 0.813043, 0.000000, [Reduced coords] 
# omega [eV]    RE(eps(q=1)) IM(eps(q=1) RE(eps(q=2) ) ... DOS   IDOS
  0.000   24.2348    0.0000   24.2348    0.0000   24.2348    0.0000   24.2348   -0.0000   24.2347    0.0000   24.2348    0.0000    0.0000    0.0000
  0.100   24.2574    0.0454   24.2574    0.0454   24.2574    0.0454   24.2574    0.0454   24.2573    0.0454   24.2574    0.0454    0.0000    0.0000
  0.200   24.3254    0.0915   24.3254    0.0915   24.3254    0.0915   24.3254    0.0915   24.3254    0.0915   24.3254    0.0915    0.0000    0.0000
  0.300   24.4399    0.1387   24.4399    0.1387   24.4399    0.1387   24.4399    0.1387   24.4398    0.1387   24.4399    0.1387    0.0000    0.0000
  0.400   24.6022    0.1879   24.6022    0.1879   24.6022    0.1879   24.6023    0.1879   24.6022    0.1879   24.6022    0.1879    0.0000    0.0000
  0.500   24.8148    0.2397   24.8148    0.2397   24.8148    0.2397   24.8148    0.2397   24.8147    0.2397   24.8148    0.2397    0.0000    0.0000
  0.600   25.0805    0.2950   25.0805    0.2950   25.0805    0.2950   25.0805    0.2950   25.0805    0.2950   25.0805    0.2950    0.0000    0.0000
  0.700   25.4033    0.3549   25.4033    0.3549   25.4033    0.3549   25.4033    0.3549   25.4033    0.3549   25.4033    0.3549    0.0000    0.0000
  0.800   25.7883    0.4204   25.7883    0.4204   25.7883    0.4204   25.7883    0.4204   25.7882    0.4204   25.7883    0.4204    0.0000    0.0000
  0.900   26.2416    0.4930   26.2416    0.4930   26.2416    0.4930   26.2416    0.4930   26.2416    0.4930   26.2416    0.4930    0.0000    0.0000
  1.000   26.7713    0.5747   26.7713    0.5747   26.7713    0.5747   26.7713    0.5747   26.7712    0.5747   26.7713    0.5747    0.0000    0.0000
  1.100   27.3871    0.6677   27.3871    0.6677   27.3871    0.6677   27.3872    0.6677   27.3871    0.6677   27.3871    0.6677    0.0000    0.0000
  1.200   28.1017    0.7751   28.1017    0.7751   28.1017    0.7751   28.1018    0.7751   28.1017    0.7751   28.1017    0.7751    0.0000    0.0000
  1.300   28.9310    0.9011   28.9310    0.9011   28.9310    0.9011   28.9311    0.9011   28.9310    0.9011   28.9310    0.9011    0.0000    0.0000
  1.400   29.8956    1.0511   29.8956    1.0511   29.8956    1.0511   29.8956    1.0511   29.8955    1.0511   29.8956    1.0511    0.0000    0.0000
  1.500   31.0222    1.2329   31.0222    1.2329   31.0222    1.2329   31.0222    1.2329   31.0221    1.2329   31.0222    1.2329    0.0000    0.0000
  1.600   32.3465    1.4578   32.3465    1.4578   32.3465    1.4578   32.3465    1.4578   32.3464    1.4578   32.3465    1.4578    0.0000    0.0000
  1.700   33.9169    1.7424   33.9169    1.7424   33.9169    1.7424   33.9170    1.7424   33.9169    1.7424   33.9169    1.7424    0.0000    0.0000
  1.800   35.8012    2.1123   35.8012    2.1123   35.8012    2.1123   35.8012    2.1123   35.8011    2.1123   35.8012    2.1123    0.0000    0.0000
  1.900   38.0962    2.6086   38.0962    2.6086   38.0962    2.6086   38.0962    2.6086   38.0961    2.6086   38.0962    2.6086    0.0000    0.0000
  2.000   40.9466    3.3015   40.9466    3.3015   40.9466    3.3015   40.9467    3.3015   40.9466    3.3015   40.9466    3.3015    0.0000    0.0000
  2.100   44.5777    4.3181   44.5777    4.3181   44.5777    4.3181   44.5778    4.3181   44.5777    4.3181   44.5777    4.3181    0.0000    0.0000
  2.200   49.3584    5.9092   49.3584    5.9092   49.3584    5.9092   49.3585    5.9092   49.3583    5.9092   49.3584    5.9092    0.0001    0.0000
  2.300   55.9278    8.6256   55.9278    8.6256   55.9278    8.6256   55.9279    8.6256   55.9277    8.6255   55.9278    8.6255    0.0080    0.0000
  2.400   65.4429   13.8623   65.4429   13.8623   65.4429   13.8623   65.4430   13.8624   65.4428   13.8623   65.4428   13.8623    0.3242    0.0012
  2.500   79.8240   25.8849   79.8240   25.8849   79.8240   25.8849   79.8242   25.8850   79.8239   25.8848   79.8239   25.8848    4.8253    0.0190
  2.600   97.7415   60.4295   97.7415   60.4295   97.7415   60.4295   97.7417   60.4297   97.7413   60.4294   97.7414   60.4294   26.4164    0.1160
  2.700   56.3580  140.0601   56.3580  140.0601   56.3580  140.0601   56.3581  140.0606   56.3579  140.0598   56.3580  140.0599   53.2027    0.3115
  2.800  -39.4062   89.9431  -39.4062   89.9431  -39.4062   89.9431  -39.4065   89.9434  -39.4061   89.9429  -39.4061   89.9430   39.4184    0.4564
  2.900  -27.8191   36.7834  -27.8191   36.7834  -27.8191   36.7834  -27.8194   36.7835  -27.8190   36.7833  -27.8190   36.7833   10.7441    0.4959
  3.000   -9.1593   19.9898   -9.1593   19.9898   -9.1593   19.9898   -9.1594   19.9899   -9.1592   19.9898   -9.1592   19.9898    1.0773    0.4999
  3.100    5.1218   14.3170    5.1218   14.3170    5.1218   14.3170    5.1216   14.3170    5.1218   14.3170    5.1219   14.3170    0.0397    0.5000
  3.200   17.3769   13.0417   17.3769   13.0417   17.3769   13.0417   17.3768   13.0417   17.3770   13.0417   17.3770   13.0417    0.0008    0.5000
  3.300   29.8963   14.8271   29.8963   14.8271   29.8963   14.8271   29.8961   14.8271   29.8963   14.8270   29.8963   14.8271    0.0252    0.5001
  3.400   45.0268   20.9401   45.0268   20.9401   45.0268   20.9401   45.0267   20.9401   45.0268   20.9401   45.0269   20.9401    0.8521    0.5032
  3.500   65.6185   37.5412   65.6185   37.5412   65.6185   37.5412   65.6184   37.5412   65.6186   37.5412   65.6186   37.5413   10.5881    0.5421
  3.600   86.4020   88.5761   86.4020   88.5761   86.4020   88.5761   86.4019   88.5760   86.4021   88.5761   86.4022   88.5762   48.4033    0.7200
  3.700    5.3343  177.6568    5.3343  177.6568    5.3343  177.6568    5.3343  177.6566    5.3344  177.6568    5.3344  177.6570   81.4023    1.0192
  3.800  -82.4840   92.5176  -82.4840   92.5176  -82.4840   92.5176  -82.4840   92.5175  -82.4840   92.5176  -82.4841   92.5177   50.3628    1.2042
  3.900  -61.9073   39.9172  -61.9073   39.9172  -61.9073   39.9172  -61.9073   39.9172  -61.9073   39.9172  -61.9073   39.9172   11.5186    1.2466
  4.000  -39.6504   24.4200  -39.6504   24.4200  -39.6504   24.4200  -39.6504   24.4200  -39.6504   24.4200  -39.6504   24.4201    2.6272    1.2562
  4.100  -21.7186   23.1507  -21.7186   23.1507  -21.7186   23.1507  -21.7186   23.1507  -21.7186   23.1507  -21.7185   23.1508   18.2271    1.3232
  4.200   -8.8781   38.1267   -8.8781   38.1267   -8.8781   38.1267   -8.8782   38.1267   -8.8782   38.1267   -8.8781   38.1268   73.0585    1.5917
  4.300  -36.2479   59.6995  -36.2479   59.6995  -36.2479   59.6995  -36.2479   59.6994  -36.2478   59.6994  -36.2479   59.6996  107.9026    1.9882
  4.400  -53.1525   28.7185  -53.1525   28.7185  -53.1525   28.7185  -53.1525   28.7185  -53.1525   28.7185  -53.1526   28.7186   58.6274    2.2037
  4.500  -43.5699   13.3390  -43.5699   13.3390  -43.5699   13.3390  -43.5699   13.3390  -43.5699   13.3390  -43.5700   13.3390   11.7186    2.2467
  4.600  -35.4330    7.8640  -35.4330    7.8640  -35.4330    7.8640  -35.4330    7.8640  -35.4330    7.8640  -35.4331    7.8640    0.8629    2.2499
  4.700  -29.5809    5.4624  -29.5809    5.4624  -29.5809    5.4624  -29.5809    5.4624  -29.5809    5.4624  -29.5809    5.4624    0.1067    2.2503
  4.800  -25.1001    4.3373  -25.1001    4.3373  -25.1001    4.3373  -25.1001    4.3373  -25.1001    4.3373  -25.1002    4.3373    2.0683    2.2579
  4.900  -21.3887    4.1386  -21.3887    4.1386  -21.3887    4.1386  -21.3887    4.1386  -21.3887    4.1386  -21.3888    4.1386   18.8582    2.3272
  5.000  -18.6748    5.5443  -18.6748    5.5443  -18.6748    5.5443  -18.6748    5.5443  -18.6748    5.5443  -18.6748    5.5443   63.2629    2.5597
  5.100  -20.1477    6.3835  -20.1477    6.3835  -20.1477    6.3835  -20.1477    6.3835  -20.1477    6.3835  -20.1477    6.3835   78.0736    2.8466
  5.200  -19.4372    3.4507  -19.4372    3.4507  -19.4372    3.4507  -19.4371    3.4507  -19.4371    3.4507  -19.4372    3.4507   35.4458    2.9769
  5.300  -17.3674    2.1871  -17.3674    2.1871  -17.3674    2.1871  -17.3674    2.1871  -17.3674    2.1871  -17.3675    2.1871    5.9201    2.9986
  5.400  -15.6320    1.6475  -15.6320    1.6475  -15.6320    1.6475  -15.6320    1.6475  -15.6319    1.6475  -15.6320    1.6475    0.3638    3.0000
  5.500  -14.1998    1.3528  -14.1998    1.3528  -14.1998    1.3528  -14.1998    1.3528  -14.1998    1.3528  -14.1998    1.3528    0.0109    3.0000
  5.600  -12.9752    1.1715  -12.9752    1.1715  -12.9752    1.1715  -12.9752    1.1715  -12.9752    1.1715  -12.9753    1.1715    0.1180    3.0004
  5.700  -11.8920    1.0702  -11.8920    1.0702  -11.8920    1.0702  -11.8920    1.0702  -11.8920    1.0702  -11.8920    1.0702    1.9360    3.0076
  5.800  -10.9134    1.0842  -10.9134    1.0842  -10.9134    1.0842  -10.9134    1.0842  -10.9134    1.0842  -10.9134    1.0842   11.6884    3.0505
  5.900  -10.2231    1.3167  -10.2231    1.3167  -10.2231    1.3167  -10.2231    1.3167  -10.2231    1.3167  -10.2231    1.3167   25.9608    3.1459
  6.000   -9.9235    1.1003   -9.9235    1.1003   -9.9235    1.1003   -9.9235    1.1003   -9.9235    1.1003   -9.9235    1.1003   21.2123    3.2239
  6.100   -9.2304    0.8012   -9.2304    0.8012   -9.2304    0.8012   -9.2304    0.8012   -9.2304    0.8012   -9.2304    0.8012    6.3762    3.2473
  6.200   -8.5418    0.6770   -8.5418    0.6770   -8.5418    0.6770   -8.5418    0.6770   -8.5418    0.6770   -8.5419    0.6770    0.7055    3.2499
  6.300   -7.9141    0.6151   -7.9141    0.6151   -7.9141    0.6151   -7.9141    0.6151   -7.9141    0.6151   -7.9141    0.6151    0.0636    3.2501
  6.400   -7.3278    0.5884   -7.3278    0.5884   -7.3278    0.5884   -7.3278    0.5884   -7.3278    0.5884   -7.3279    0.5884    1.0862    3.2541
  6.500   -6.7632    0.6083   -6.7632    0.6083   -6.7632    0.6083   -6.7632    0.6083   -6.7632    0.6083   -6.7632    0.6083   12.4379    3.2998
  6.600   -6.2363    0.7529   -6.2363    0.7529   -6.2363    0.7529   -6.2363    0.7529   -6.2363    0.7529   -6.2363    0.7529   52.4169    3.4925
  6.700   -6.0850    0.9816   -6.0850    0.9816   -6.0850    0.9816   -6.0850    0.9816   -6.0850    0.9816   -6.0850    0.9816   81.2644    3.7911
  6.800   -5.8857    0.6836   -5.8857    0.6836   -5.8857    0.6836   -5.8857    0.6836   -5.8857    0.6836   -5.8858    0.6836   46.3484    3.9614
  6.900   -5.4050    0.5253   -5.4050    0.5253   -5.4050    0.5253   -5.4050    0.5253   -5.4050    0.5253   -5.4050    0.5253    9.7247    3.9972
  7.000   -4.9335    0.4754   -4.9335    0.4754   -4.9335    0.4754   -4.9335    0.4754   -4.9335    0.4754   -4.9335    0.4754    0.7508    3.9999
  7.100   -4.4759    0.4668   -4.4759    0.4668   -4.4759    0.4668   -4.4759    0.4668   -4.4759    0.4668   -4.4759    0.4668    0.0413    4.0001
  7.200   -4.0124    0.4876   -4.0124    0.4876   -4.0124    0.4876   -4.0124    0.4876   -4.0124    0.4876   -4.0124    0.4876    0.6820    4.0026
  7.300   -3.5195    0.5503   -3.5195    0.5503   -3.5195    0.5503   -3.5195    0.5503   -3.5195    0.5503   -3.5195    0.5503    8.9196    4.0354
  7.400   -2.9702    0.7092   -2.9702    0.7092   -2.9702    0.7092   -2.9702    0.7092   -2.9702    0.7092   -2.9702    0.7092   45.9802    4.2043
  7.500   -2.4457    1.1506   -2.4457    1.1506   -2.4457    1.1506   -2.4457    1.1506   -2.4457    1.1506   -2.4457    1.1506   96.6250    4.5594
  7.600   -2.5442    1.5084   -2.5442    1.5084   -2.5442    1.5084   -2.5442    1.5084   -2.5442    1.5084   -2.5442    1.5084   86.0990    4.8758
  7.700   -2.0275    1.2775   -2.0275    1.2775   -2.0275    1.2775   -2.0275    1.2775   -2.0274    1.2775   -2.0275    1.2775   47.7919    5.0515
  7.800   -1.0315    1.7121   -1.0315    1.7121   -1.0315    1.7121   -1.0315    1.7121   -1.0315    1.7121   -1.0315    1.7121   79.9778    5.3454
  7.900   -0.1998    2.9414   -0.1998    2.9414   -0.1998    2.9414   -0.1998    2.9414   -0.1998    2.9414   -0.1998    2.9414  158.7431    5.9287
  8.000    0.0805    5.5903    0.0805    5.5903    0.0805    5.5903    0.0805    5.5903    0.0805    5.5903    0.0805    5.5903  192.1726    6.6350
  8.100   -3.7357    7.0395   -3.7357    7.0395   -3.7357    7.0395   -3.7357    7.0395   -3.7357    7.0395   -3.7357    7.0395  155.4009    7.2061
  8.200   -4.8110    6.1026   -4.8110    6.1026   -4.8110    6.1026   -4.8110    6.1026   -4.8110    6.1026   -4.8111    6.1025  114.9837    7.6286
  8.300   -7.3573    4.4589   -7.3573    4.4589   -7.3573    4.4589   -7.3574    4.4590   -7.3573    4.4589   -7.3573    4.4589   74.3173    7.9017
  8.400   -6.6952    1.9800   -6.6952    1.9800   -6.6952    1.9800   -6.6952    1.9800   -6.6952    1.9800   -6.6952    1.9800   23.6770    7.9887
  8.500   -5.6314    1.1022   -5.6314    1.1022   -5.6314    1.1022   -5.6314    1.1022   -5.6314    1.1022   -5.6314    1.1022    2.9286    7.9995
  8.600   -4.8375    0.7522   -4.8375    0.7522   -4.8375    0.7522   -4.8375    0.7522   -4.8375    0.7522   -4.8375    0.7522    0.1344    8.0000
  8.700   -4.2191    0.5915   -4.2191    0.5915   -4.2191    0.5915   -4.2191    0.5915   -4.2191    0.5915   -4.2191    0.5915    0.0023    8.0000
  8.800   -3.6927    0.5214   -3.6927    0.5214   -3.6927    0.5214   -3.6927    0.5214   -3.6927    0.5214   -3.6927    0.5214    0.0000    8.0000
  8.900   -3.2012    0.5142   -3.2012    0.5142   -3.2012    0.5142   -3.2012    0.5142   -3.2012    0.5142   -3.2012    0.5142    0.0027    8.0000
  9.000   -2.6944    0.5785   -2.6944    0.5785   -2.6944    0.5785   -2.6944    0.5785   -2.6944    0.5785   -2.6944    0.5785    0.1527    8.0006
  9.100   -2.1115    0.7784   -2.1115    0.7784   -2.1115    0.7784   -2.1115    0.7784   -2.1115    0.7784   -2.1115    0.7784    3.2037    8.0123
  9.200   -1.4009    1.3583   -1.4009    1.3583   -1.4009    1.3583   -1.4009    1.3583   -1.4009    1.3583   -1.4009    1.3583   24.7472    8.1033
  9.300   -1.1920    3.0779   -1.1920    3.0779   -1.1920    3.0779   -1.1920    3.0779   -1.1920    3.0779   -1.1920    3.0779   70.8736    8.3637
  9.400   -3.5561    3.4671   -3.5561    3.4671   -3.5561    3.4671   -3.5561    3.4671   -3.5561    3.4671   -3.5561    3.4671   82.1424    8.6656
  9.500   -3.4444    2.3184   -3.4444    2.3184   -3.4444    2.3184   -3.4444    2.3184   -3.4444    2.3184   -3.4444    2.3184   72.1246    8.9307
  9.600   -3.7983    2.9608   -3.7983    2.9608   -3.7983    2.9608   -3.7983    2.9608   -3.7983    2.9608   -3.7983    2.9608   84.9057    9.2427
  9.700   -4.7958    1.7194   -4.7958    1.7194   -4.7958    1.7194   -4.7958    1.7194   -4.7958    1.7194   -4.7958    1.7194   55.0457    9.4450
  9.800   -4.2802    0.8143   -4.2802    0.8143   -4.2802    0.8143   -4.2802    0.8143   -4.2802    0.8143   -4.2802    0.8143   13.6757    9.4931
  9.900   -3.7779    0.4944   -3.7779    0.4944   -3.7779    0.4944   -3.7778    0.4944   -3.7778    0.4944   -3.7779    0.4944    1.2539    9.4985
 10.000   -3.3992    0.3562   -3.3992    0.3562   -3.3992    0.3562   -3.3992    0.3562   -3.3992    0.3562   -3.3992    0.3562    0.0423    9.4986
