# GW Macroscopic dielectric function without local field effects 
# Scissor operator energy =  0.8000 [eV]
# Tolerance =  0.0200 0.0200
# npweps  = 51
# npwwfn  = 137
# nbands  = 8
# loband  = 2
# nkibz   = 2
# nkbz    = 32
# Lorentzian broadening =  0.1000 [eV]
# List of q-points for the optical limit:
# q =  0.938821, 0.000000, 0.000000, [Reduced coords] 
# q =  0.000000, 0.938821, 0.000000, [Reduced coords] 
# q =  0.000000, 0.000000, 0.938821, [Reduced coords] 
# q =  0.000000, 0.813043, 0.813043, [Reduced coords] 
# q =  0.813043, 0.000000, 0.813043, [Reduced coords] 
# q =  0.813043, 0.813043, 0.000000, [Reduced coords] 
# omega [eV]    RE(eps(q=1)) IM(eps(q=1) RE(eps(q=2) ) ... DOS   IDOS
  0.000   19.6943   -0.0000   19.6943   -0.0000   19.6943    0.0000   19.6944   -0.0000   19.6943    0.0000   19.6943   -0.0000    0.0000    0.0000
  0.100   19.7057    0.0227   19.7057    0.0227   19.7057    0.0227   19.7057    0.0227   19.7056    0.0227   19.7057    0.0227    0.0000    0.0000
  0.200   19.7397    0.0456   19.7397    0.0456   19.7397    0.0456   19.7397    0.0456   19.7397    0.0456   19.7397    0.0456    0.0000    0.0000
  0.300   19.7968    0.0689   19.7968    0.0689   19.7968    0.0689   19.7968    0.0689   19.7967    0.0689   19.7968    0.0689    0.0000    0.0000
  0.400   19.8773    0.0927   19.8773    0.0927   19.8773    0.0927   19.8773    0.0927   19.8773    0.0927   19.8773    0.0927    0.0000    0.0000
  0.500   19.9819    0.1173   19.9819    0.1173   19.9819    0.1173   19.9819    0.1173   19.9819    0.1173   19.9819    0.1173    0.0000    0.0000
  0.600   20.1115    0.1429   20.1115    0.1429   20.1115    0.1429   20.1116    0.1429   20.1115    0.1429   20.1115    0.1429    0.0000    0.0000
  0.700   20.2673    0.1697   20.2673    0.1697   20.2673    0.1697   20.2673    0.1697   20.2672    0.1697   20.2673    0.1697    0.0000    0.0000
  0.800   20.4504    0.1980   20.4504    0.1980   20.4504    0.1980   20.4504    0.1980   20.4504    0.1980   20.4504    0.1980    0.0000    0.0000
  0.900   20.6627    0.2282   20.6627    0.2282   20.6627    0.2282   20.6627    0.2282   20.6627    0.2282   20.6627    0.2282    0.0000    0.0000
  1.000   20.9060    0.2605   20.9060    0.2605   20.9060    0.2605   20.9060    0.2605   20.9060    0.2605   20.9060    0.2605    0.0000    0.0000
  1.100   21.1828    0.2954   21.1828    0.2954   21.1828    0.2954   21.1828    0.2954   21.1828    0.2954   21.1828    0.2954    0.0000    0.0000
  1.200   21.4959    0.3335   21.4959    0.3335   21.4959    0.3335   21.4959    0.3335   21.4958    0.3335   21.4959    0.3335    0.0000    0.0000
  1.300   21.8486    0.3753   21.8486    0.3753   21.8486    0.3753   21.8486    0.3753   21.8485    0.3753   21.8486    0.3753    0.0000    0.0000
  1.400   22.2449    0.4214   22.2449    0.4214   22.2449    0.4214   22.2449    0.4214   22.2449    0.4214   22.2449    0.4214    0.0000    0.0000
  1.500   22.6896    0.4729   22.6896    0.4729   22.6896    0.4729   22.6897    0.4729   22.6896    0.4729   22.6896    0.4729    0.0000    0.0000
  1.600   23.1886    0.5309   23.1886    0.5309   23.1886    0.5309   23.1886    0.5309   23.1886    0.5309   23.1886    0.5309    0.0000    0.0000
  1.700   23.7487    0.5966   23.7487    0.5966   23.7487    0.5966   23.7488    0.5966   23.7487    0.5966   23.7487    0.5966    0.0000    0.0000
  1.800   24.3786    0.6719   24.3786    0.6719   24.3786    0.6719   24.3786    0.6719   24.3785    0.6719   24.3786    0.6719    0.0000    0.0000
  1.900   25.0886    0.7591   25.0886    0.7591   25.0886    0.7591   25.0886    0.7591   25.0885    0.7591   25.0886    0.7591    0.0000    0.0000
  2.000   25.8917    0.8612   25.8917    0.8612   25.8917    0.8612   25.8917    0.8612   25.8917    0.8612   25.8917    0.8612    0.0000    0.0000
  2.100   26.8044    0.9822   26.8044    0.9822   26.8044    0.9822   26.8045    0.9822   26.8044    0.9822   26.8044    0.9822    0.0000    0.0000
  2.200   27.8476    1.1276   27.8476    1.1276   27.8476    1.1276   27.8477    1.1276   27.8476    1.1276   27.8476    1.1276    0.0000    0.0000
  2.300   29.0485    1.3052   29.0485    1.3052   29.0485    1.3052   29.0485    1.3052   29.0485    1.3052   29.0485    1.3052    0.0000    0.0000
  2.400   30.4430    1.5262   30.4430    1.5262   30.4430    1.5262   30.4431    1.5262   30.4430    1.5262   30.4430    1.5262    0.0000    0.0000
  2.500   32.0800    1.8072   32.0800    1.8072   32.0800    1.8072   32.0800    1.8072   32.0800    1.8072   32.0800    1.8072    0.0000    0.0000
  2.600   34.0272    2.1737   34.0272    2.1737   34.0272    2.1737   34.0272    2.1737   34.0272    2.1737   34.0272    2.1737    0.0000    0.0000
  2.700   36.3819    2.6669   36.3819    2.6669   36.3819    2.6669   36.3820    2.6669   36.3819    2.6669   36.3819    2.6669    0.0000    0.0000
  2.800   39.2891    3.3569   39.2891    3.3569   39.2891    3.3569   39.2892    3.3569   39.2891    3.3569   39.2891    3.3569    0.0000    0.0000
  2.900   42.9741    4.3707   42.9741    4.3707   42.9741    4.3707   42.9742    4.3707   42.9741    4.3707   42.9741    4.3707    0.0000    0.0000
  3.000   47.8061    5.9592   47.8061    5.9592   47.8061    5.9592   47.8062    5.9593   47.8060    5.9592   47.8060    5.9592    0.0000    0.0000
  3.100   54.4243    8.6732   54.4243    8.6732   54.4243    8.6732   54.4244    8.6733   54.4242    8.6732   54.4243    8.6732    0.0000    0.0000
  3.200   63.9859   13.9078   63.9859   13.9078   63.9859   13.9078   63.9860   13.9078   63.9858   13.9078   63.9858   13.9078    0.0027    0.0000
  3.300   78.4113   25.9282   78.4113   25.9282   78.4113   25.9282   78.4115   25.9283   78.4112   25.9282   78.4113   25.9282    0.6066    0.0022
  3.400   96.3711   60.4709   96.3711   60.4709   96.3711   60.4709   96.3714   60.4711   96.3710   60.4708   96.3711   60.4708   18.1816    0.0691
  3.500   55.0281  140.0996   55.0281  140.0996   55.0281  140.0996   55.0282  140.1001   55.0280  140.0993   55.0281  140.0995   73.7484    0.3401
  3.600  -40.6975   89.9809  -40.6975   89.9809  -40.6975   89.9809  -40.6978   89.9812  -40.6974   89.9807  -40.6974   89.9808   40.4840    0.4889
  3.700  -29.0735   36.8196  -29.0735   36.8196  -29.0735   36.8196  -29.0737   36.8197  -29.0733   36.8195  -29.0734   36.8195    3.0076    0.4999
  3.800  -10.3782   20.0244  -10.3782   20.0244  -10.3782   20.0244  -10.3784   20.0245  -10.3781   20.0244  -10.3781   20.0244    0.0302    0.5000
  3.900    3.9366   14.3502    3.9366   14.3502    3.9366   14.3502    3.9365   14.3502    3.9367   14.3502    3.9367   14.3502    0.0000    0.5000
  4.000   16.2243   13.0735   16.2243   13.0735   16.2243   13.0735   16.2241   13.0735   16.2243   13.0735   16.2244   13.0735    0.0000    0.5000
  4.100   28.7747   14.8576   28.7747   14.8576   28.7747   14.8576   28.7746   14.8576   28.7747   14.8575   28.7748   14.8576    0.0000    0.5000
  4.200   43.9351   20.9694   43.9351   20.9694   43.9351   20.9694   43.9350   20.9694   43.9352   20.9694   43.9352   20.9694    0.0126    0.5001
  4.300   64.5555   37.5693   64.5555   37.5693   64.5555   37.5693   64.5554   37.5693   64.5555   37.5693   64.5556   37.5694    1.9473    0.5072
  4.400   85.3666   88.6031   85.3666   88.6031   85.3666   88.6031   85.3664   88.6030   85.3666   88.6031   85.3667   88.6032   40.6952    0.6568
  4.500    4.3253  177.6828    4.3253  177.6828    4.3253  177.6828    4.3253  177.6826    4.3254  177.6828    4.3254  177.6829  115.0976    1.0797
  4.600  -83.4676   92.5426  -83.4676   92.5426  -83.4676   92.5426  -83.4675   92.5425  -83.4676   92.5426  -83.4676   92.5427   44.0555    1.2416
  4.700  -62.8664   39.9412  -62.8664   39.9412  -62.8664   39.9412  -62.8664   39.9412  -62.8664   39.9412  -62.8664   39.9413    2.2822    1.2500
  4.800  -40.5859   24.4432  -40.5859   24.4432  -40.5859   24.4432  -40.5859   24.4432  -40.5859   24.4432  -40.5859   24.4432    0.0522    1.2502
  4.900  -22.6313   23.1730  -22.6313   23.1730  -22.6313   23.1730  -22.6314   23.1730  -22.6313   23.1730  -22.6313   23.1731    4.3140    1.2661
  5.000   -9.7690   38.1482   -9.7690   38.1482   -9.7690   38.1482   -9.7691   38.1482   -9.7691   38.1482   -9.7690   38.1483   69.5332    1.5216
  5.100  -37.1177   59.7202  -37.1177   59.7202  -37.1177   59.7202  -37.1177   59.7201  -37.1176   59.7201  -37.1177   59.7204  151.6764    2.0790
  5.200  -54.0020   28.7385  -54.0020   28.7385  -54.0020   28.7385  -54.0019   28.7385  -54.0019   28.7385  -54.0021   28.7386   44.7770    2.2436
  5.300  -44.3998   13.3583  -44.3998   13.3583  -44.3998   13.3583  -44.3997   13.3583  -44.3997   13.3583  -44.3998   13.3583    1.7890    2.2501
  5.400  -36.2439    7.8826  -36.2439    7.8826  -36.2439    7.8826  -36.2439    7.8826  -36.2438    7.8826  -36.2439    7.8826    0.0097    2.2502
  5.500  -30.3735    5.4804  -30.3735    5.4804  -30.3735    5.4804  -30.3735    5.4804  -30.3735    5.4804  -30.3735    5.4804    0.0001    2.2502
  5.600  -25.8751    4.3546  -25.8751    4.3546  -25.8751    4.3546  -25.8750    4.3546  -25.8750    4.3546  -25.8751    4.3546    0.0743    2.2504
  5.700  -22.1466    4.1553  -22.1466    4.1553  -22.1466    4.1553  -22.1466    4.1553  -22.1466    4.1553  -22.1466    4.1553    6.1772    2.2731
  5.800  -19.4161    5.5602  -19.4161    5.5602  -19.4161    5.5602  -19.4161    5.5602  -19.4161    5.5602  -19.4162    5.5602   69.5171    2.5286
  5.900  -20.8727    6.3988  -20.8727    6.3988  -20.8727    6.3988  -20.8727    6.3988  -20.8727    6.3988  -20.8727    6.3988  105.8770    2.9177
  6.000  -20.1466    3.4658  -20.1466    3.4658  -20.1466    3.4658  -20.1466    3.4658  -20.1466    3.4658  -20.1466    3.4658   21.8234    2.9979
  6.100  -18.0619    2.2018  -18.0619    2.2018  -18.0619    2.2018  -18.0619    2.2018  -18.0619    2.2018  -18.0619    2.2018    0.6088    3.0001
  6.200  -16.3119    1.6618  -16.3119    1.6618  -16.3119    1.6618  -16.3119    1.6618  -16.3119    1.6618  -16.3120    1.6618    0.0023    3.0002
  6.300  -14.8657    1.3667  -14.8657    1.3667  -14.8657    1.3667  -14.8657    1.3667  -14.8657    1.3667  -14.8657    1.3667    0.0000    3.0002
  6.400  -13.6275    1.1849  -13.6275    1.1849  -13.6275    1.1849  -13.6275    1.1849  -13.6275    1.1849  -13.6275    1.1849    0.0007    3.0002
  6.500  -12.5310    1.0833  -12.5310    1.0833  -12.5310    1.0833  -12.5310    1.0833  -12.5310    1.0833  -12.5310    1.0833    0.1953    3.0009
  6.600  -11.5396    1.0971  -11.5396    1.0971  -11.5396    1.0971  -11.5396    1.0971  -11.5396    1.0971  -11.5396    1.0971    7.1190    3.0270
  6.700  -10.8370    1.3297  -10.8370    1.3297  -10.8370    1.3297  -10.8370    1.3297  -10.8370    1.3297  -10.8370    1.3297   35.1196    3.1561
  6.800  -10.5260    1.1127  -10.5260    1.1127  -10.5260    1.1127  -10.5260    1.1127  -10.5260    1.1127  -10.5260    1.1127   23.4471    3.2423
  6.900   -9.8211    0.8129   -9.8211    0.8129   -9.8211    0.8129   -9.8211    0.8129   -9.8211    0.8129   -9.8211    0.8129    2.1186    3.2501
  7.000   -9.1211    0.6883   -9.1211    0.6883   -9.1211    0.6883   -9.1211    0.6883   -9.1211    0.6883   -9.1211    0.6883    0.0259    3.2501
  7.100   -8.4823    0.6261   -8.4823    0.6261   -8.4823    0.6261   -8.4823    0.6261   -8.4823    0.6261   -8.4823    0.6261    0.0001    3.2501
  7.200   -7.8853    0.5990   -7.8853    0.5990   -7.8853    0.5990   -7.8853    0.5990   -7.8853    0.5990   -7.8853    0.5990    0.0205    3.2502
  7.300   -7.3102    0.6186   -7.3102    0.6186   -7.3102    0.6186   -7.3102    0.6186   -7.3102    0.6186   -7.3102    0.6186    2.6871    3.2601
  7.400   -6.7732    0.7629   -6.7732    0.7629   -6.7732    0.7629   -6.7732    0.7629   -6.7732    0.7629   -6.7732    0.7629   47.7238    3.4355
  7.500   -6.6120    0.9913   -6.6120    0.9913   -6.6120    0.9913   -6.6120    0.9913   -6.6120    0.9913   -6.6120    0.9913  114.7079    3.8570
  7.600   -6.4032    0.6931   -6.4032    0.6931   -6.4032    0.6931   -6.4032    0.6931   -6.4032    0.6931   -6.4032    0.6931   37.3132    3.9941
  7.700   -5.9131    0.5345   -5.9131    0.5345   -5.9131    0.5345   -5.9131    0.5345   -5.9131    0.5345   -5.9131    0.5345    1.6426    4.0002
  7.800   -5.4325    0.4844   -5.4325    0.4844   -5.4325    0.4844   -5.4325    0.4844   -5.4325    0.4844   -5.4325    0.4844    0.0098    4.0002
  7.900   -4.9661    0.4755   -4.9661    0.4755   -4.9661    0.4755   -4.9661    0.4755   -4.9661    0.4755   -4.9661    0.4755    0.0000    4.0002
  8.000   -4.4941    0.4961   -4.4941    0.4961   -4.4941    0.4961   -4.4941    0.4961   -4.4941    0.4961   -4.4941    0.4961    0.0103    4.0003
  8.100   -3.9928    0.5585   -3.9928    0.5585   -3.9928    0.5585   -3.9928    0.5585   -3.9928    0.5585   -3.9928    0.5585    1.5264    4.0059
  8.200   -3.4353    0.7172   -3.4353    0.7172   -3.4353    0.7172   -3.4353    0.7172   -3.4353    0.7172   -3.4353    0.7172   33.1041    4.1275
  8.300   -2.9029    1.1584   -2.9029    1.1584   -2.9029    1.1584   -2.9029    1.1584   -2.9029    1.1584   -2.9029    1.1584  123.3561    4.5808
  8.400   -2.9937    1.5160   -2.9937    1.5160   -2.9937    1.5160   -2.9937    1.5160   -2.9936    1.5160   -2.9937    1.5160   98.0196    4.9411
  8.500   -2.4694    1.2849   -2.4694    1.2849   -2.4694    1.2849   -2.4694    1.2849   -2.4694    1.2849   -2.4694    1.2849   20.0066    5.0146
  8.600   -1.4662    1.7192   -1.4662    1.7192   -1.4662    1.7192   -1.4662    1.7192   -1.4661    1.7192   -1.4662    1.7192   63.2551    5.2470
  8.700   -0.6270    2.9482   -0.6270    2.9482   -0.6270    2.9482   -0.6270    2.9482   -0.6270    2.9482   -0.6270    2.9482  175.0770    5.8904
  8.800   -0.3395    5.5971   -0.3395    5.5971   -0.3395    5.5971   -0.3395    5.5971   -0.3395    5.5971   -0.3395    5.5971  218.9794    6.6952
  8.900   -4.1486    7.0463   -4.1486    7.0463   -4.1486    7.0463   -4.1486    7.0463   -4.1486    7.0463   -4.1486    7.0463  147.5414    7.2374
  9.000   -5.2175    6.1100   -5.2175    6.1100   -5.2175    6.1100   -5.2175    6.1100   -5.2175    6.1100   -5.2175    6.1099  115.2156    7.6608
  9.100   -7.7582    4.4661   -7.7582    4.4661   -7.7582    4.4661   -7.7582    4.4661   -7.7582    4.4661   -7.7582    4.4661   82.7139    7.9648
  9.200   -7.0897    1.9866   -7.0897    1.9866   -7.0897    1.9866   -7.0898    1.9866   -7.0897    1.9866   -7.0897    1.9866    9.4997    7.9997
  9.300   -6.0197    1.1084   -6.0197    1.1084   -6.0197    1.1084   -6.0197    1.1084   -6.0197    1.1084   -6.0197    1.1084    0.1484    8.0002
  9.400   -5.2197    0.7582   -5.2197    0.7582   -5.2197    0.7582   -5.2197    0.7582   -5.2197    0.7582   -5.2197    0.7582    0.0003    8.0002
  9.500   -4.5954    0.5973   -4.5954    0.5973   -4.5954    0.5973   -4.5954    0.5973   -4.5954    0.5973   -4.5954    0.5973    0.0000    8.0002
  9.600   -4.0632    0.5271   -4.0632    0.5271   -4.0632    0.5271   -4.0632    0.5271   -4.0632    0.5271   -4.0632    0.5271    0.0000    8.0002
  9.700   -3.5661    0.5197   -3.5661    0.5197   -3.5661    0.5197   -3.5661    0.5197   -3.5661    0.5197   -3.5661    0.5197    0.0000    8.0002
  9.800   -3.0537    0.5839   -3.0537    0.5839   -3.0537    0.5839   -3.0537    0.5839   -3.0537    0.5839   -3.0537    0.5839    0.0004    8.0002
  9.900   -2.4655    0.7837   -2.4655    0.7837   -2.4655    0.7837   -2.4655    0.7837   -2.4655    0.7837   -2.4655    0.7837    0.1783    8.0010
 10.000   -1.7498    1.3633   -1.7498    1.3633   -1.7498    1.3633   -1.7498    1.3633   -1.7498    1.3633   -1.7498    1.3633   10.6227    8.0156
