# Macroscopic dielectric function obtained with the BS equation.
#  RPA L0 with KS energies and KS wavefunctions     LOCAL FIELD EFFECTS INCLUDED
# RESONANT+COUPLING calculation
# Coulomb term constructed with full W(G1,G2)
# Scissor operator energy =  0.8000 [eV]
# nstates included in the diagonalization = 768
# npweps  = 51
# npwwfn  = 137
# nbands  = 8
# loband  = 2
# nkibz   = 2
# nkbz    = 32
# Lorentzian broadening =  0.1000 [eV]
# List of q-points for the optical limit:
# q =  0.938821, 0.000000, 0.000000, [Reduced coords] 
# q =  0.000000, 0.938821, 0.000000, [Reduced coords] 
# q =  0.000000, 0.000000, 0.938821, [Reduced coords] 
# q =  0.000000, 0.813043, 0.813043, [Reduced coords] 
# q =  0.813043, 0.000000, 0.813043, [Reduced coords] 
# q =  0.813043, 0.813043, 0.000000, [Reduced coords] 
# omega [eV]    RE(eps(q=1)) IM(eps(q=1) RE(eps(q=2) ) ... DOS   IDOS
  0.000   21.0572    0.0000   21.0582    0.0000   21.0583    0.0000   21.0566    0.0000   21.0578    0.0000   21.0593    0.0000    0.0000    0.0000
  0.100   21.0722    0.0301   21.0732    0.0301   21.0733    0.0301   21.0716    0.0301   21.0728    0.0301   21.0743    0.0302    0.0000    0.0000
  0.200   21.1173    0.0606   21.1184    0.0606   21.1185    0.0606   21.1168    0.0606   21.1180    0.0606   21.1195    0.0606    0.0000    0.0000
  0.300   21.1931    0.0916   21.1941    0.0916   21.1943    0.0916   21.1925    0.0916   21.1938    0.0916   21.1953    0.0916    0.0000    0.0000
  0.400   21.3002    0.1235   21.3013    0.1236   21.3015    0.1236   21.2996    0.1235   21.3009    0.1235   21.3025    0.1236    0.0000    0.0000
  0.500   21.4397    0.1567   21.4409    0.1568   21.4410    0.1567   21.4392    0.1567   21.4405    0.1567   21.4421    0.1568    0.0000    0.0000
  0.600   21.6131    0.1915   21.6143    0.1916   21.6144    0.1916   21.6125    0.1915   21.6139    0.1915   21.6155    0.1916    0.0000    0.0000
  0.700   21.8221    0.2283   21.8233    0.2284   21.8234    0.2284   21.8215    0.2283   21.8229    0.2284   21.8246    0.2284    0.0000    0.0000
  0.800   22.0689    0.2677   22.0703    0.2678   22.0704    0.2678   22.0683    0.2677   22.0698    0.2678   22.0715    0.2678    0.0000    0.0000
  0.900   22.3564    0.3101   22.3579    0.3103   22.3580    0.3102   22.3558    0.3101   22.3573    0.3102   22.3592    0.3103    0.0000    0.0000
  1.000   22.6879    0.3563   22.6896    0.3564   22.6895    0.3564   22.6873    0.3563   22.6889    0.3564   22.6908    0.3564    0.0000    0.0000
  1.100   23.0674    0.4069   23.0692    0.4071   23.0692    0.4071   23.0668    0.4069   23.0685    0.4070   23.0705    0.4071    0.0000    0.0000
  1.200   23.4999    0.4630   23.5019    0.4632   23.5018    0.4632   23.4993    0.4630   23.5011    0.4631   23.5032    0.4633    0.0000    0.0000
  1.300   23.9913    0.5258   23.9935    0.5260   23.9933    0.5259   23.9907    0.5258   23.9926    0.5259   23.9948    0.5260    0.0000    0.0000
  1.400   24.5487    0.5966   24.5512    0.5968   24.5510    0.5968   24.5481    0.5966   24.5502    0.5967   24.5525    0.5969    0.0000    0.0000
  1.500   25.1811    0.6773   25.1838    0.6776   25.1835    0.6775   25.1804    0.6773   25.1826    0.6774   25.1852    0.6776    0.0000    0.0000
  1.600   25.8991    0.7702   25.9022    0.7706   25.9018    0.7705   25.8985    0.7702   25.9009    0.7704   25.9036    0.7706    0.0000    0.0000
  1.700   26.7163    0.8784   26.7198    0.8789   26.7192    0.8788   26.7156    0.8784   26.7182    0.8787   26.7212    0.8789    0.0000    0.0000
  1.800   27.6494    1.0060   27.6534    1.0065   27.6527    1.0064   27.6487    1.0060   27.6516    1.0063   27.6548    1.0066    0.0000    0.0000
  1.900   28.7198    1.1584   28.7243    1.1590   28.7235    1.1588   28.7191    1.1583   28.7223    1.1587   28.7258    1.1590    0.0000    0.0000
  2.000   29.9550    1.3429   29.9602    1.3437   29.9591    1.3435   29.9543    1.3429   29.9578    1.3433   29.9617    1.3437    0.0000    0.0000
  2.100   31.3909    1.5703   31.3969    1.5712   31.3956    1.5709   31.3902    1.5703   31.3941    1.5708   31.3984    1.5713    0.0000    0.0000
  2.200   33.0755    1.8558   33.0824    1.8568   33.0808    1.8565   33.0748    1.8557   33.0792    1.8563   33.0840    1.8569    0.0000    0.0000
  2.300   35.0741    2.2220   35.0822    2.2233   35.0803    2.2229   35.0734    2.2219   35.0784    2.2226   35.0839    2.2233    0.0000    0.0000
  2.400   37.4784    2.7041   37.4878    2.7058   37.4855    2.7053   37.4776    2.7041   37.4834    2.7050   37.4896    2.7059    0.0000    0.0000
  2.500   40.4204    3.3591   40.4316    3.3612   40.4288    3.3606   40.4195    3.3590   40.4263    3.3602   40.4336    3.3613    0.0000    0.0000
  2.600   44.0980    4.2836   44.1116    4.2864   44.1080    4.2856   44.0971    4.2835   44.1051    4.2850   44.1137    4.2866    0.0000    0.0000
  2.700   48.8205    5.6534   48.8373    5.6572   48.8327    5.6560   48.8195    5.6532   48.8292    5.6553   48.8395    5.6575    0.0000    0.0000
  2.800   55.0959    7.8143   55.1170    7.8199   55.1111    7.8181   55.0947    7.8140   55.1068    7.8171   55.1195    7.8203    0.0003    0.0000
  2.900   63.8066   11.5232   63.8340   11.5320   63.8261   11.5292   63.8051   11.5227   63.8207   11.5276   63.8369   11.5326    0.0408    0.0002
  3.000   76.5545   18.6836   76.5915   18.6989   76.5806   18.6940   76.5526   18.6826   76.5735   18.6914   76.5951   18.7001    1.8773    0.0071
  3.100   96.0480   35.0557   96.0997   35.0877   96.0841   35.0773   96.0453   35.0531   96.0745   35.0720   96.1043   35.0905   34.2968    0.1331
  3.200  121.3057   81.7862  121.3680   81.8708  121.3495   81.8428  121.3037   81.7780  121.3376   81.8292  121.3727   81.8790  266.2645    1.1116
  3.300   71.0262  196.5089   70.9605  196.6566   70.9871  196.6095   71.0450  196.4993   70.9930  196.5840   70.9482  196.6687  945.3007    4.5855
  3.400  -77.0441  135.4290  -77.1013  135.4246  -77.0829  135.4311  -77.0397  135.4436  -77.0731  135.4268  -77.1066  135.4170 1566.1822   10.3411
  3.500  -65.3868   53.4918  -65.3976   53.4983  -65.3956   53.4979  -65.3887   53.4973  -65.3922   53.4950  -65.3979   53.4952 1149.1234   14.5641
  3.600  -40.2892   27.0521  -40.2851   27.0661  -40.2874   27.0622  -40.2895   27.0549  -40.2871   27.0591  -40.2862   27.0643  347.6041   15.8415
  3.700  -22.2669   17.4658  -22.2464   17.4873  -22.2537   17.4806  -22.2652   17.4685  -22.2566   17.4766  -22.2490   17.4851   41.2332   15.9930
  3.800   -8.3543   13.9969   -8.3099   14.0326   -8.3248   14.0210   -8.3498   14.0009   -8.3319   14.0148   -8.3147   14.0289    1.8740   15.9999
  3.900    4.2316   13.9898    4.3148   14.0578    4.2872   14.0353    4.2403   13.9974    4.2734   14.0237    4.3060   14.0504    0.5775   16.0020
  4.000   17.8440   17.8616   17.9940   18.0147   17.9443   17.9637   17.8601   17.8792   17.9191   17.9379   17.9781   17.9972   14.0082   16.0535
  4.100   34.8840   30.2749   35.1212   30.7025   35.0427   30.5594   34.9094   30.3251   35.0028   30.4877   35.0961   30.6517  138.8127   16.5636
  4.200   50.1048   70.1019   49.8882   71.4513   49.9641   70.9991   50.0728   70.2625   50.0006   70.7738   49.9237   71.2879  587.4566   18.7225
  4.300  -17.0175  130.0695  -19.7485  129.4877  -18.8322  129.6922  -17.3598  129.9845  -18.3833  129.7895  -19.3993  129.5838 1375.5569   23.7776
  4.400  -72.0305   63.3578  -71.8263   61.9470  -71.8991   62.4211  -71.9958   63.1698  -71.9302   62.6518  -71.8658   62.1392 2108.6845   31.5269
  4.500  -56.1258   27.1915  -55.7026   26.7373  -55.8459   26.8894  -56.0621   27.1296  -55.9148   26.9649  -55.7687   26.8001 1678.9694   37.6970
  4.600  -40.9839   15.4553  -40.6935   15.2790  -40.7915   15.3383  -40.9380   15.4315  -40.8392   15.3675  -40.7408   15.3034  556.2589   39.7412
  4.700  -29.7941   11.5894  -29.5905   11.5079  -29.6591   11.5355  -29.7598   11.5794  -29.6926   11.5488  -29.6256   11.5184  129.1890   40.2159
  4.800  -20.5076   12.4633  -20.3532   12.4253  -20.4050   12.4385  -20.4800   12.4618  -20.4306   12.4445  -20.3812   12.4275  521.5671   42.1327
  4.900  -15.1771   21.0914  -15.0569   21.0868  -15.0970   21.0892  -15.1632   21.0972  -15.1170   21.0894  -15.0710   21.0821 1964.8365   49.3533
  5.000  -27.2684   28.0160  -27.1919   28.0254  -27.2179   28.0239  -27.2509   28.0101  -27.2301   28.0213  -27.2102   28.0330 3204.6977   61.1303
  5.100  -34.1011   14.6934  -34.0461   14.6932  -34.0658   14.6943  -34.0884   14.6956  -34.0742   14.6939  -34.0603   14.6920 2207.6767   69.2434
  5.200  -28.9721    7.1731  -28.9233    7.1699  -28.9408    7.1714  -28.9613    7.1737  -28.9482    7.1717  -28.9354    7.1697  653.1722   71.6438
  5.300  -24.3802    4.4708  -24.3353    4.4680  -24.3512    4.4692  -24.3694    4.4712  -24.3582    4.4695  -24.3471    4.4678   90.3456   71.9758
  5.400  -20.9066    3.2987  -20.8641    3.2975  -20.8791    3.2981  -20.8954    3.2996  -20.8857    3.2982  -20.8761    3.2968    9.0280   72.0090
  5.500  -18.0934    2.7976  -18.0516    2.7989  -18.0662    2.7986  -18.0813    2.7994  -18.0728    2.7983  -18.0644    2.7973   54.8829   72.2107
  5.600  -15.6019    2.8633  -15.5583    2.8697  -15.5733    2.8677  -15.5878    2.8673  -15.5803    2.8666  -15.5729    2.8660  471.1314   73.9420
  5.700  -13.4610    4.1031  -13.4149    4.1232  -13.4307    4.1167  -13.4447    4.1131  -13.4381    4.1133  -13.4316    4.1135 1684.8957   80.1339
  5.800  -14.6063    6.4591  -14.5802    6.5048  -14.5893    6.4900  -14.5968    6.4820  -14.5934    6.4821  -14.5902    6.4824 2472.1525   89.2189
  5.900  -16.1198    3.7968  -16.1268    3.8244  -16.1251    3.8155  -16.1283    3.8126  -16.1236    3.8107  -16.1191    3.8089 1464.1300   94.5995
  6.000  -14.5952    2.0469  -14.6004    2.0569  -14.5992    2.0537  -14.6027    2.0529  -14.5980    2.0519  -14.5935    2.0511  346.8454   95.8741
  6.100  -13.1537    1.4025  -13.1550    1.4068  -13.1551    1.4054  -13.1586    1.4053  -13.1545    1.4047  -13.1506    1.4041   32.9641   95.9953
  6.200  -11.9913    1.0985  -11.9903    1.1005  -11.9911    1.0999  -11.9946    1.1000  -11.9910    1.0995  -11.9875    1.0991    1.3010   96.0000
  6.300  -11.0181    0.9270  -11.0159    0.9280  -11.0171    0.9277  -11.0204    0.9279  -11.0172    0.9275  -11.0141    0.9271    1.6412   96.0061
  6.400  -10.1693    0.8293  -10.1664    0.8299  -10.1677    0.8297  -10.1708    0.8300  -10.1680    0.8296  -10.1653    0.8292   32.9656   96.1272
  6.500   -9.4063    0.8102   -9.4031    0.8104   -9.4045    0.8104   -9.4072    0.8107   -9.4048    0.8103   -9.4025    0.8098  250.3516   97.0472
  6.600   -8.8051    0.9408   -8.8018    0.9408   -8.8032    0.9408   -8.8058    0.9415   -8.8036    0.9408   -8.8015    0.9401  715.9813   99.6784
  6.700   -8.5325    0.8540   -8.5292    0.8539   -8.5306    0.8540   -8.5334    0.8547   -8.5310    0.8540   -8.5286    0.8532  782.0040  102.5522
  6.800   -8.0091    0.6286   -8.0059    0.6284   -8.0072    0.6285   -8.0099    0.6289   -8.0076    0.6285   -8.0054    0.6281  333.1223  103.7764
  6.900   -7.4692    0.5334   -7.4662    0.5332   -7.4675    0.5333   -7.4699    0.5336   -7.4678    0.5333   -7.4658    0.5330   56.8368  103.9853
  7.000   -6.9732    0.4864   -6.9704    0.4861   -6.9716    0.4863   -6.9737    0.4865   -6.9719    0.4863   -6.9702    0.4861    6.8457  104.0105
  7.100   -6.5081    0.4649   -6.5056    0.4645   -6.5067    0.4646   -6.5085    0.4649   -6.5070    0.4647   -6.5054    0.4645   51.6578  104.2003
  7.200   -6.0582    0.4733   -6.0562    0.4726   -6.0571    0.4728   -6.0587    0.4732   -6.0573    0.4729   -6.0560    0.4727  397.5631  105.6613
  7.300   -5.6160    0.5545   -5.6145    0.5528   -5.6152    0.5534   -5.6165    0.5539   -5.6153    0.5537   -5.6142    0.5535 1424.5922  110.8966
  7.400   -5.3362    0.8146   -5.3336    0.8107   -5.3347    0.8121   -5.3359    0.8131   -5.3350    0.8127   -5.3341    0.8123 2375.9885  119.6282
  7.500   -5.3867    0.7114   -5.3818    0.7093   -5.3836    0.7101   -5.3854    0.7109   -5.3843    0.7104   -5.3832    0.7098 1719.3445  125.9467
  7.600   -5.0414    0.4798   -5.0371    0.4790   -5.0387    0.4793   -5.0404    0.4797   -5.0393    0.4794   -5.0384    0.4791  500.4359  127.7857
  7.700   -4.6457    0.4071   -4.6419    0.4066   -4.6434    0.4068   -4.6447    0.4071   -4.6439    0.4068   -4.6431    0.4066   55.9361  127.9913
  7.800   -4.2640    0.3930   -4.2605    0.3927   -4.2618    0.3928   -4.2629    0.3931   -4.2623    0.3928   -4.2618    0.3926    3.4407  128.0039
  7.900   -3.8780    0.4176   -3.8748    0.4174   -3.8760    0.4174   -3.8768    0.4177   -3.8765    0.4175   -3.8761    0.4172   30.5583  128.1162
  8.000   -3.4638    0.5063   -3.4608    0.5061   -3.4619    0.5062   -3.4624    0.5065   -3.4623    0.5062   -3.4622    0.5059  338.0199  129.3584
  8.100   -3.0308    0.7805   -3.0280    0.7806   -3.0290    0.7806   -3.0292    0.7810   -3.0294    0.7806   -3.0297    0.7802 1541.3690  135.0229
  8.200   -3.0578    1.3438   -3.0557    1.3442   -3.0565    1.3441   -3.0561    1.3448   -3.0568    1.3440   -3.0575    1.3433 3018.8104  146.1168
  8.300   -3.3433    1.0219   -3.3421    1.0217   -3.3426    1.0218   -3.3422    1.0230   -3.3428    1.0218   -3.3434    1.0206 2656.8361  155.8805
  8.400   -2.8643    0.7446   -2.8636    0.7436   -2.8639    0.7439   -2.8629    0.7454   -2.8640    0.7441   -2.8651    0.7428 1460.2128  161.2467
  8.500   -2.2568    0.8557   -2.2560    0.8528   -2.2563    0.8538   -2.2546    0.8569   -2.2564    0.8543   -2.2583    0.8517 2318.1385  169.7657
  8.600   -1.7576    1.4030   -1.7508    1.3989   -1.7531    1.4003   -1.7541    1.4059   -1.7543    1.4009   -1.7544    1.3960 4824.3202  187.4947
  8.700   -1.9480    1.8887   -1.9469    1.8966   -1.9474    1.8940   -1.9490    1.8953   -1.9474    1.8926   -1.9461    1.8901 5796.2490  208.7956
  8.800   -1.5826    1.9939   -1.5872    1.9883   -1.5857    1.9902   -1.5844    1.9947   -1.5849    1.9912   -1.5856    1.9876 4733.8786  226.1922
  8.900   -1.3225    2.5529   -1.3194    2.5483   -1.3204    2.5500   -1.3224    2.5584   -1.3210    2.5507   -1.3194    2.5428 3529.4382  239.1627
  9.000   -0.6565    4.1865   -0.6525    4.1777   -0.6538    4.1809   -0.6611    4.1904   -0.6545    4.1822   -0.6477    4.1741 2499.2534  248.3473
  9.100   -4.2652    6.5891   -4.2480    6.5925   -4.2539    6.5919   -4.2710    6.5874   -4.2568    6.5909   -4.2422    6.5949 1334.9357  253.2531
  9.200   -6.2987    3.0613   -6.2969    3.0677   -6.2979    3.0658   -6.2996    3.0595   -6.2979    3.0645   -6.2964    3.0699  494.1160  255.0689
  9.300   -5.3378    1.3930   -5.3371    1.3950   -5.3376    1.3944   -5.3383    1.3925   -5.3375    1.3940   -5.3369    1.3956  174.7613  255.7112
  9.400   -4.5005    0.8271   -4.4993    0.8279   -4.5000    0.8277   -4.5012    0.8270   -4.5000    0.8275   -4.4990    0.8281   65.0021  255.9500
  9.500   -3.8761    0.6014   -3.8745    0.6018   -3.8752    0.6017   -3.8767    0.6014   -3.8753    0.6016   -3.8741    0.6018   12.6219  255.9964
  9.600   -3.3628    0.5175   -3.3609    0.5178   -3.3617    0.5178   -3.3634    0.5176   -3.3619    0.5177   -3.3605    0.5178    1.0806  256.0004
  9.700   -2.8847    0.5330   -2.8825    0.5333   -2.8834    0.5332   -2.8853    0.5330   -2.8836    0.5331   -2.8821    0.5333    5.5194  256.0207
  9.800   -2.3789    0.6985   -2.3763    0.6992   -2.3773    0.6990   -2.3794    0.6987   -2.3776    0.6989   -2.3760    0.6991   93.8995  256.3514
  9.900   -1.8788    1.2856   -1.8760    1.2874   -1.8771    1.2868   -1.8794    1.2861   -1.8774    1.2865   -1.8755    1.2869  660.3990  259.1828
 10.000   -2.5287    2.4016   -2.5272    2.4047   -2.5279    2.4037   -2.5301    2.4016   -2.5280    2.4031   -2.5259    2.4047 1930.5655  261.8433
