# GW Macroscopic dielectric function without local field effects 
# Scissor operator energy =  0.8000 [eV]
# nstates included in the diagonalization = 768
# npweps  = 51
# npwwfn  = 137
# nbands  = 8
# loband  = 2
# loband(spin=2) = 2
# nkibz   = 2
# nkbz    = 32
# Lorentzian broadening =  0.1000 [eV]
# List of q-points for the optical limit:
# q =  0.938821, 0.000000, 0.000000, [Reduced coords] 
# q =  0.000000, 0.938821, 0.000000, [Reduced coords] 
# q =  0.000000, 0.000000, 0.938821, [Reduced coords] 
# q =  0.000000, 0.813043, 0.813043, [Reduced coords] 
# q =  0.813043, 0.000000, 0.813043, [Reduced coords] 
# q =  0.813043, 0.813043, 0.000000, [Reduced coords] 
# omega [eV]    RE(eps(q=1)) IM(eps(q=1) RE(eps(q=2) ) ... DOS   IDOS
  0.000   20.4711    0.0000   20.4711    0.0000   20.4711    0.0000   20.4711   -0.0000   20.4711   -0.0000   20.4711   -0.0000    0.0000    0.0000
  0.100   20.4820    0.0219   20.4820    0.0219   20.4820    0.0219   20.4820    0.0219   20.4820    0.0219   20.4820    0.0219    0.0000    0.0000
  0.200   20.5149    0.0440   20.5149    0.0440   20.5149    0.0440   20.5149    0.0440   20.5149    0.0440   20.5149    0.0440    0.0000    0.0000
  0.300   20.5700    0.0664   20.5700    0.0664   20.5700    0.0664   20.5700    0.0664   20.5700    0.0664   20.5700    0.0664    0.0000    0.0000
  0.400   20.6476    0.0894   20.6476    0.0894   20.6476    0.0894   20.6476    0.0894   20.6476    0.0894   20.6476    0.0894    0.0000    0.0000
  0.500   20.7484    0.1130   20.7484    0.1130   20.7484    0.1130   20.7484    0.1130   20.7484    0.1130   20.7484    0.1130    0.0000    0.0000
  0.600   20.8732    0.1374   20.8732    0.1374   20.8732    0.1374   20.8732    0.1374   20.8732    0.1374   20.8732    0.1374    0.0000    0.0000
  0.700   21.0229    0.1630   21.0229    0.1630   21.0229    0.1630   21.0229    0.1630   21.0229    0.1630   21.0229    0.1630    0.0000    0.0000
  0.800   21.1987    0.1898   21.1987    0.1898   21.1987    0.1898   21.1987    0.1898   21.1987    0.1898   21.1987    0.1898    0.0000    0.0000
  0.900   21.4021    0.2183   21.4021    0.2183   21.4021    0.2183   21.4021    0.2183   21.4021    0.2183   21.4021    0.2183    0.0000    0.0000
  1.000   21.6347    0.2487   21.6347    0.2487   21.6347    0.2487   21.6347    0.2487   21.6347    0.2487   21.6347    0.2487    0.0000    0.0000
  1.100   21.8987    0.2813   21.8987    0.2813   21.8987    0.2813   21.8987    0.2813   21.8987    0.2813   21.8987    0.2813    0.0000    0.0000
  1.200   22.1964    0.3166   22.1964    0.3166   22.1964    0.3166   22.1964    0.3166   22.1964    0.3166   22.1964    0.3166    0.0000    0.0000
  1.300   22.5307    0.3550   22.5307    0.3550   22.5307    0.3550   22.5307    0.3550   22.5307    0.3550   22.5307    0.3550    0.0000    0.0000
  1.400   22.9051    0.3971   22.9051    0.3971   22.9051    0.3971   22.9051    0.3971   22.9051    0.3971   22.9051    0.3971    0.0000    0.0000
  1.500   23.3235    0.4437   23.3235    0.4437   23.3235    0.4437   23.3235    0.4437   23.3235    0.4437   23.3235    0.4437    0.0000    0.0000
  1.600   23.7907    0.4956   23.7907    0.4956   23.7907    0.4956   23.7907    0.4956   23.7907    0.4956   23.7907    0.4956    0.0000    0.0000
  1.700   24.3125    0.5538   24.3125    0.5538   24.3125    0.5538   24.3125    0.5538   24.3125    0.5538   24.3125    0.5538    0.0000    0.0000
  1.800   24.8957    0.6197   24.8957    0.6197   24.8957    0.6197   24.8957    0.6197   24.8957    0.6197   24.8957    0.6197    0.0000    0.0000
  1.900   25.5486    0.6949   25.5486    0.6949   25.5486    0.6949   25.5486    0.6949   25.5486    0.6949   25.5486    0.6949    0.0000    0.0000
  2.000   26.2816    0.7817   26.2816    0.7817   26.2816    0.7817   26.2816    0.7817   26.2816    0.7817   26.2816    0.7817    0.0000    0.0000
  2.100   27.1072    0.8829   27.1072    0.8829   27.1072    0.8829   27.1072    0.8829   27.1072    0.8829   27.1072    0.8829    0.0000    0.0000
  2.200   28.0412    1.0022   28.0412    1.0022   28.0412    1.0022   28.0412    1.0022   28.0412    1.0022   28.0412    1.0022    0.0000    0.0000
  2.300   29.1036    1.1447   29.1036    1.1447   29.1036    1.1447   29.1036    1.1447   29.1036    1.1447   29.1036    1.1447    0.0000    0.0000
  2.400   30.3201    1.3175   30.3201    1.3175   30.3201    1.3175   30.3201    1.3175   30.3201    1.3175   30.3201    1.3175    0.0000    0.0000
  2.500   31.7246    1.5308   31.7246    1.5308   31.7246    1.5308   31.7246    1.5308   31.7246    1.5308   31.7246    1.5308    0.0000    0.0000
  2.600   33.3624    1.7993   33.3624    1.7993   33.3624    1.7993   33.3624    1.7993   33.3624    1.7993   33.3624    1.7993    0.0000    0.0000
  2.700   35.2958    2.1455   35.2958    2.1455   35.2958    2.1455   35.2958    2.1455   35.2958    2.1455   35.2958    2.1455    0.0000    0.0000
  2.800   37.6130    2.6052   37.6130    2.6052   37.6130    2.6052   37.6130    2.6052   37.6130    2.6052   37.6130    2.6052    0.0000    0.0000
  2.900   40.4435    3.2378   40.4435    3.2378   40.4435    3.2378   40.4435    3.2378   40.4435    3.2378   40.4435    3.2378    0.0000    0.0000
  3.000   43.9852    4.1487   43.9852    4.1487   43.9852    4.1487   43.9852    4.1487   43.9852    4.1487   43.9852    4.1487    0.0000    0.0000
  3.100   48.5560    5.5397   48.5560    5.5397   48.5560    5.5397   48.5560    5.5397   48.5560    5.5397   48.5560    5.5397    0.0000    0.0000
  3.200   54.6958    7.8382   54.6958    7.8382   54.6958    7.8382   54.6958    7.8382   54.6958    7.8382   54.6958    7.8382    0.0000    0.0000
  3.300   63.3701   12.0750   63.3701   12.0750   63.3701   12.0750   63.3701   12.0750   63.3701   12.0750   63.3701   12.0750    0.0007    0.0000
  3.400   76.2815   21.2107   76.2815   21.2107   76.2815   21.2107   76.2815   21.2107   76.2815   21.2107   76.2815   21.2107    0.2960    0.0011
  3.500   94.5879   45.7016   94.5879   45.7016   94.5879   45.7016   94.5879   45.7016   94.5879   45.7016   94.5879   45.7016   16.1694    0.0605
  3.600   87.8395  116.2545   87.8395  116.2545   87.8395  116.2545   87.8395  116.2545   87.8395  116.2545   87.8395  116.2545  119.5352    0.4998
  3.700  -23.7542  116.8254  -23.7542  116.8254  -23.7542  116.8254  -23.7542  116.8254  -23.7542  116.8254  -23.7542  116.8254  119.5937    0.9393
  3.800  -29.5183   47.3711  -29.5183   47.3711  -29.5183   47.3711  -29.5183   47.3711  -29.5183   47.3711  -29.5183   47.3711   16.1932    0.9988
  3.900   -9.0273   24.2289   -9.0273   24.2289   -9.0273   24.2289   -9.0273   24.2289   -9.0273   24.2289   -9.0273   24.2289    0.2967    0.9999
  4.000    7.5322   16.9527    7.5322   16.9527    7.5322   16.9527    7.5322   16.9527    7.5322   16.9527    7.5322   16.9527    0.0007    0.9999
  4.100   21.9033   15.5883   21.9033   15.5883   21.9033   15.5883   21.9033   15.5883   21.9033   15.5883   21.9033   15.5883    0.0000    0.9999
  4.200   36.8926   18.3397   36.8926   18.3397   36.8926   18.3397   36.8926   18.3397   36.8926   18.3397   36.8926   18.3397    0.0003    0.9999
  4.300   55.4930   27.3861   55.4930   27.3861   55.4930   27.3861   55.4930   27.3861   55.4930   27.3861   55.4930   27.3861    0.1737    1.0005
  4.400   80.5111   53.2186   80.5111   53.2186   80.5111   53.2186   80.5111   53.2186   80.5111   53.2186   80.5111   53.2186   13.6319    1.0506
  4.500   88.9947  132.9019   88.9947  132.9019   88.9947  132.9019   88.9947  132.9019   88.9947  132.9019   88.9947  132.9019  144.7625    1.5826
  4.600  -50.1110  175.7944  -50.1110  175.7944  -50.1110  175.7944  -50.1110  175.7944  -50.1110  175.7944  -50.1110  175.7944  208.0498    2.3472
  4.700  -82.2993   74.1324  -82.2993   74.1324  -82.2993   74.1324  -82.2993   74.1324  -82.2993   74.1324  -82.2993   74.1324   40.4660    2.4959
  4.800  -54.6851   37.0771  -54.6851   37.0771  -54.6851   37.0771  -54.6851   37.0771  -54.6851   37.0771  -54.6851   37.0771    1.0841    2.4999
  4.900  -30.7068   29.0508  -30.7068   29.0508  -30.7068   29.0508  -30.7068   29.0508  -30.7068   29.0508  -30.7068   29.0508    3.5305    2.5129
  5.000  -11.6888   40.6451  -11.6888   40.6451  -11.6888   40.6451  -11.6888   40.6451  -11.6888   40.6450  -11.6888   40.6451   88.8767    2.8395
  5.100  -29.7590   73.9786  -29.7590   73.9786  -29.7590   73.9786  -29.7590   73.9787  -29.7590   73.9786  -29.7590   73.9786  303.1215    3.9534
  5.200  -65.0772   43.1744  -65.0772   43.1744  -65.0772   43.1744  -65.0772   43.1744  -65.0772   43.1744  -65.0772   43.1744  139.9125    4.4676
  5.300  -55.0086   18.9517  -55.0086   18.9517  -55.0086   18.9517  -55.0086   18.9517  -55.0086   18.9517  -55.0086   18.9517    8.7399    4.4997
  5.400  -44.3508   10.5970  -44.3508   10.5970  -44.3508   10.5970  -44.3508   10.5970  -44.3508   10.5970  -44.3508   10.5970    0.0739    4.5000
  5.500  -36.7519    7.0706  -36.7519    7.0706  -36.7519    7.0706  -36.7519    7.0706  -36.7519    7.0706  -36.7519    7.0706    0.0001    4.5000
  5.600  -31.0793    5.3742  -31.0793    5.3742  -31.0793    5.3742  -31.0793    5.3742  -31.0793    5.3742  -31.0793    5.3742    0.0129    4.5000
  5.700  -26.4942    4.7381  -26.4942    4.7381  -26.4942    4.7381  -26.4942    4.7381  -26.4942    4.7381  -26.4942    4.7381    2.4777    4.5091
  5.800  -22.6607    5.4918  -22.6607    5.4918  -22.6607    5.4918  -22.6607    5.4918  -22.6607    5.4918  -22.6607    5.4918   64.3944    4.7458
  5.900  -22.2215    8.1332  -22.2215    8.1332  -22.2215    8.1332  -22.2215    8.1332  -22.2215    8.1332  -22.2215    8.1332  226.4942    5.5781
  6.000  -23.6829    5.3292  -23.6829    5.3292  -23.6829    5.3292  -23.6829    5.3292  -23.6829    5.3292  -23.6829    5.3292  107.8145    5.9743
  6.100  -21.3804    3.0202  -21.3804    3.0202  -21.3804    3.0202  -21.3804    3.0202  -21.3804    3.0202  -21.3804    3.0202    6.9456    5.9999
  6.200  -19.1784    2.1313  -19.1784    2.1313  -19.1784    2.1313  -19.1784    2.1313  -19.1784    2.1313  -19.1784    2.1313    0.0606    6.0001
  6.300  -17.3847    1.6898  -17.3847    1.6898  -17.3847    1.6898  -17.3847    1.6898  -17.3847    1.6898  -17.3847    1.6898    0.0001    6.0001
  6.400  -15.8798    1.4253  -15.8798    1.4253  -15.8798    1.4253  -15.8798    1.4253  -15.8798    1.4253  -15.8798    1.4253    0.0000    6.0001
  6.500  -14.5732    1.2563  -14.5732    1.2563  -14.5732    1.2563  -14.5732    1.2563  -14.5732    1.2563  -14.5732    1.2563    0.0010    6.0001
  6.600  -13.4020    1.1664  -13.4020    1.1664  -13.4020    1.1664  -13.4020    1.1664  -13.4020    1.1664  -13.4020    1.1664    0.3088    6.0012
  6.700  -12.3299    1.2068  -12.3299    1.2068  -12.3299    1.2068  -12.3299    1.2068  -12.3299    1.2068  -12.3299    1.2068   12.4535    6.0470
  6.800  -11.5732    1.5249  -11.5732    1.5249  -11.5732    1.5249  -11.5732    1.5249  -11.5732    1.5249  -11.5732    1.5249   67.9784    6.2968
  6.900  -11.3525    1.3084  -11.3525    1.3084  -11.3525    1.3084  -11.3525    1.3084  -11.3525    1.3084  -11.3525    1.3084   50.2184    6.4814
  7.000  -10.6015    0.9209  -10.6015    0.9209  -10.6015    0.9209  -10.6015    0.9209  -10.6015    0.9209  -10.6015    0.9209    5.0207    6.4998
  7.100   -9.8267    0.7677   -9.8267    0.7677   -9.8267    0.7677   -9.8267    0.7677   -9.8267    0.7677   -9.8267    0.7677    0.0679    6.5001
  7.200   -9.1187    0.6986   -9.1187    0.6986   -9.1187    0.6986   -9.1187    0.6986   -9.1187    0.6986   -9.1187    0.6986    0.0018    6.5001
  7.300   -8.4543    0.6794   -8.4543    0.6794   -8.4543    0.6794   -8.4543    0.6794   -8.4543    0.6794   -8.4543    0.6794    0.6062    6.5023
  7.400   -7.8154    0.7411   -7.8154    0.7411   -7.8154    0.7411   -7.8154    0.7411   -7.8154    0.7411   -7.8154    0.7411   29.1888    6.6096
  7.500   -7.3343    0.9997   -7.3343    0.9997   -7.3343    0.9997   -7.3343    0.9997   -7.3343    0.9997   -7.3343    0.9997  190.2196    7.3086
  7.600   -7.2693    0.9324   -7.2693    0.9324   -7.2693    0.9324   -7.2693    0.9324   -7.2693    0.9324   -7.2693    0.9324  167.7666    7.9251
  7.700   -6.7902    0.6535   -6.7902    0.6535   -6.7902    0.6535   -6.7902    0.6535   -6.7902    0.6535   -6.7902    0.6535   20.0247    7.9987
  7.800   -6.2421    0.5575   -6.2421    0.5575   -6.2421    0.5575   -6.2421    0.5575   -6.2421    0.5575   -6.2421    0.5575    0.3235    7.9999
  7.900   -5.7180    0.5264   -5.7180    0.5264   -5.7180    0.5264   -5.7180    0.5264   -5.7180    0.5264   -5.7180    0.5264    0.0007    7.9999
  8.000   -5.2027    0.5250   -5.2027    0.5250   -5.2027    0.5250   -5.2027    0.5250   -5.2027    0.5250   -5.2027    0.5250    0.0238    8.0000
  8.100   -4.6773    0.5472   -4.6773    0.5472   -4.6773    0.5472   -4.6773    0.5472   -4.6773    0.5472   -4.6773    0.5472    3.2714    8.0120
  8.200   -4.1199    0.5992   -4.1199    0.5992   -4.1199    0.5992   -4.1199    0.5992   -4.1199    0.5992   -4.1199    0.5992   60.8742    8.2357
  8.300   -3.5016    0.6995   -3.5016    0.6995   -3.5016    0.6995   -3.5016    0.6995   -3.5016    0.6995   -3.5016    0.6995  153.3039    8.7991
  8.400   -2.7734    0.8954   -2.7734    0.8954   -2.7734    0.8954   -2.7734    0.8954   -2.7734    0.8954   -2.7734    0.8954   53.2269    8.9947
  8.500   -1.8806    1.3437   -1.8806    1.3437   -1.8806    1.3437   -1.8806    1.3437   -1.8806    1.3437   -1.8806    1.3437   35.3116    9.1245
  8.600   -1.1089    2.3738   -1.1089    2.3738   -1.1089    2.3738   -1.1089    2.3738   -1.1089    2.3738   -1.1089    2.3738  173.5010    9.7621
  8.700   -0.5611    3.3458   -0.5611    3.3458   -0.5611    3.3458   -0.5611    3.3458   -0.5611    3.3458   -0.5611    3.3458  289.8098   10.8271
  8.800    0.2981    5.6944    0.2981    5.6944    0.2981    5.6944    0.2981    5.6944    0.2981    5.6944    0.2981    5.6944  381.4504   12.2289
  8.900   -3.0085    9.3049   -3.0085    9.3049   -3.0085    9.3049   -3.0085    9.3049   -3.0085    9.3049   -3.0085    9.3049  501.5957   14.0723
  9.000   -5.7852    8.2316   -5.7852    8.2316   -5.7852    8.2316   -5.7852    8.2316   -5.7852    8.2316   -5.7852    8.2316  319.7374   15.2473
  9.100   -9.3275    6.1709   -9.3275    6.1709   -9.3275    6.1709   -9.3275    6.1709   -9.3275    6.1709   -9.3275    6.1709  181.4631   15.9141
  9.200   -8.6605    2.6961   -8.6605    2.6961   -8.6605    2.6961   -8.6605    2.6961   -8.6605    2.6961   -8.6605    2.6961   22.9501   15.9985
  9.300   -7.2797    1.4548   -7.2797    1.4548   -7.2797    1.4548   -7.2797    1.4548   -7.2797    1.4548   -7.2797    1.4548    0.4042   16.0000
  9.400   -6.2580    0.9653   -6.2580    0.9653   -6.2580    0.9653   -6.2580    0.9653   -6.2580    0.9653   -6.2580    0.9653    0.0010   16.0000
  9.500   -5.4788    0.7382   -5.4788    0.7382   -5.4788    0.7382   -5.4788    0.7382   -5.4788    0.7382   -5.4788    0.7382    0.0000   16.0000
  9.600   -4.8321    0.6302   -4.8321    0.6302   -4.8321    0.6302   -4.8321    0.6302   -4.8321    0.6302   -4.8321    0.6302    0.0000   16.0000
  9.700   -4.2470    0.5949   -4.2470    0.5949   -4.2470    0.5949   -4.2470    0.5949   -4.2470    0.5949   -4.2470    0.5949    0.0000   16.0000
  9.800   -3.6683    0.6260   -3.6683    0.6260   -3.6683    0.6260   -3.6683    0.6260   -3.6683    0.6260   -3.6683    0.6260    0.0000   16.0000
  9.900   -3.0364    0.7533   -3.0364    0.7533   -3.0364    0.7533   -3.0364    0.7533   -3.0364    0.7533   -3.0364    0.7533    0.0029   16.0000
 10.000   -2.2696    1.0898   -2.2696    1.0898   -2.2696    1.0898   -2.2696    1.0898   -2.2696    1.0898   -2.2696    1.0898    0.8850   16.0012
